title:V                                                                               , recorded:07.07.20 13.42.28, sampling:128, subject:B                                                                               , labels:COUNTER INTERPOLATED AF3 F7 F3 FC5 T7 P7 O1 O2 P8 T8 FC6 F4 F8 AF4,, units:emotiv,,,,,,,,,
52,0,4242.051178,4214.871692,4245.640922,4237.948614,4227.692204,4230.769127,4239.487076,4183.076821,2317.948661,4225.128102,4236.922973,4230.769127,4248.205024,4232.307589
53,0,4244.615281,4212.307589,4243.58964,4236.922973,4223.58964,4227.179384,4238.461435,4171.79477,2316.92302,4211.281948,4232.307589,4218.974256,4239.999896,4226.666563
54,0,4253.333229,4213.846051,4242.051178,4239.999896,4230.769127,4226.666563,4240.512717,4177.435795,2328.205071,4197.948615,4230.769127,4217.435794,4234.358871,4232.307589
55,0,4250.256306,4219.487076,4241.538358,4237.435794,4228.717845,4227.179384,4235.897332,4178.461436,2348.717891,4202.051179,4221.025538,4222.051179,4231.794768,4226.153743
56,0,4253.84605,4223.58964,4242.563999,4230.256307,4224.102461,4226.153743,4225.640922,4163.589642,2352.307635,4206.666564,4218.461435,4221.025538,4236.922973,4223.58964
57,0,4257.948614,4226.153743,4244.10246,4236.922973,4230.256307,4226.153743,4225.640922,4157.435796,2357.94866,4207.692205,4227.179384,4217.948615,4243.076819,4233.84605
58,0,4255.384511,4228.717845,4243.076819,4246.666563,4235.384512,4229.230666,4228.717845,4166.153744,2379.999942,4219.487076,4231.794768,4219.999897,4245.128101,4237.948614
59,0,4252.307588,4224.102461,4235.897332,4242.051178,4234.871691,4227.692204,4226.666563,4170.256308,2399.999941,4223.58964,4231.281948,4219.999897,4246.666563,4230.256307
60,0,4243.58964,4221.025538,4234.871691,4238.461435,4235.897332,4223.58964,4226.666563,4169.743488,2406.153787,4217.948615,4231.794768,4219.999897,4249.743486,4229.743486
61,0,4241.538358,4225.640922,4238.974255,4240.512717,4232.820409,4221.538358,4222.563999,4165.128103,2402.051223,4215.384512,4233.33323,4221.025538,4250.769127,4236.922973
62,0,4249.230665,4223.58964,4233.33323,4236.410153,4226.666563,4221.025538,4217.948615,4158.461437,2396.923018,4213.33323,4232.820409,4217.948615,4249.743486,4237.948614
63,0,4242.051178,4208.717846,4223.58964,4229.230666,4224.102461,4222.051179,4219.487076,4159.999898,2401.025582,4210.769128,4224.615281,4208.205025,4241.538358,4225.640922
64,0,4238.974255,4207.692205,4229.743486,4229.743486,4220.512717,4220.512717,4221.025538,4160.512719,2403.589685,4210.769128,4219.487076,4207.692205,4237.948614,4222.051179
65,0,4249.230665,4212.82041,4237.435794,4233.33323,4212.307589,4215.897333,4215.897333,4148.205027,2387.179429,4205.128102,4223.58964,4214.358871,4243.076819,4232.820409
66,0,4237.435794,4202.051179,4232.820409,4228.717845,4205.128102,4214.358871,4212.82041,4135.384514,2368.717891,4196.922974,4218.974256,4215.897333,4237.948614,4234.871691
67,0,4222.051179,4196.410154,4235.897332,4221.538358,4209.743487,4215.897333,4213.846051,4138.974258,2374.358916,4205.128102,4211.794769,4215.384512,4232.307589,4227.179384
68,0,4229.230666,4203.07682,4238.974255,4221.025538,4214.871692,4214.358871,4216.922974,4146.666565,2383.589685,4208.205025,4215.384512,4210.769128,4236.410153,4221.025538
69,0,4236.410153,4203.589641,4227.179384,4225.640922,4209.230666,4213.846051,4218.461435,4147.692206,2378.974301,4202.564,4223.58964,4207.692205,4239.999896,4222.051179
70,0,4243.076819,4204.615282,4225.640922,4228.205025,4208.717846,4217.435794,4215.897333,4150.769129,2385.640967,4213.33323,4231.794768,4214.871692,4246.153742,4233.84605
71,0,4253.84605,4214.358871,4238.461435,4231.794768,4215.897333,4217.435794,4214.871692,4155.384514,2403.076864,4224.615281,4237.435794,4225.128102,4256.410152,4246.153742
72,0,4242.051178,4213.33323,4238.974255,4233.33323,4212.307589,4215.384512,4214.871692,4146.666565,2400.512762,4212.307589,4228.205025,4221.025538,4250.769127,4244.615281
73,0,4232.307589,4209.743487,4232.820409,4232.820409,4205.640923,4214.358871,4212.307589,4131.794771,2388.71789,4203.07682,4219.999897,4210.769128,4238.974255,4239.999896
74,0,4244.10246,4217.435794,4235.384512,4231.281948,4209.743487,4213.33323,4210.769128,4127.179386,2392.307634,4208.717846,4225.128102,4214.871692,4239.999896,4238.461435
75,0,4245.128101,4218.461435,4236.922973,4230.256307,4213.33323,4212.82041,4210.256307,4132.307591,2407.179428,4214.871692,4228.717845,4226.153743,4246.153742,4238.974255
76,0,4237.435794,4211.281948,4234.871691,4232.820409,4206.666564,4213.33323,4208.717846,4139.487078,2432.307633,4218.461435,4228.717845,4223.58964,4246.666563,4239.487076
77,0,4250.256306,4213.33323,4235.384512,4234.358871,4208.717846,4214.871692,4210.769128,4144.102463,2454.871735,4219.487076,4229.743486,4215.897333,4246.666563,4234.871691
78,0,4249.743486,4217.435794,4231.281948,4230.256307,4219.487076,4215.897333,4214.871692,4139.999899,2459.99994,4217.435794,4226.666563,4218.974256,4247.179383,4231.794768
79,0,4230.769127,4212.82041,4224.615281,4228.717845,4217.948615,4215.384512,4215.384512,4138.974258,2464.615324,4218.461435,4224.102461,4218.461435,4245.640922,4232.307589
80,0,4228.717845,4207.179384,4221.025538,4229.743486,4207.692205,4212.82041,4214.871692,4150.256309,2483.076862,4215.384512,4224.615281,4207.692205,4241.538358,4226.666563
81,0,4243.076819,4212.307589,4222.051179,4230.769127,4209.230666,4213.33323,4214.871692,4158.461437,2492.820452,4221.025538,4231.281948,4209.743487,4244.10246,4230.769127
82,0,4243.58964,4212.82041,4223.07682,4232.307589,4213.33323,4215.897333,4213.846051,4151.28195,2487.692247,4236.922973,4236.922973,4215.897333,4250.769127,4237.948614
83,0,4234.871691,4208.717846,4224.615281,4229.743486,4211.281948,4214.358871,4210.769128,4144.615283,2488.205067,4233.33323,4234.871691,4211.794769,4250.256306,4232.307589
84,0,4232.307589,4207.179384,4224.102461,4228.205025,4209.230666,4212.82041,4207.179384,4142.051181,2503.076862,4217.948615,4227.179384,4205.128102,4241.538358,4230.256307
85,0,4239.999896,4208.717846,4224.615281,4228.205025,4209.230666,4213.33323,4207.692205,4144.102463,2521.025579,4220.512717,4228.205025,4208.205025,4240.512717,4238.461435
86,0,4240.512717,4208.205025,4227.692204,4227.692204,4209.743487,4212.82041,4212.82041,4148.205027,2539.999938,4220.512717,4230.769127,4212.307589,4243.076819,4232.820409
87,0,4226.153743,4205.128102,4231.281948,4229.743486,4210.256307,4213.33323,4215.384512,4147.692206,2556.923014,4209.230666,4226.153743,4212.82041,4236.922973,4219.999897
88,0,4219.999897,4203.589641,4230.256307,4231.794768,4210.769128,4215.384512,4216.410153,4147.179386,2572.307629,4207.692205,4220.512717,4208.205025,4231.794768,4221.538358
89,0,4233.33323,4209.230666,4228.205025,4230.769127,4214.358871,4216.410153,4217.435794,4150.769129,2583.58968,4213.846051,4226.153743,4208.205025,4238.461435,4234.358871
90,0,4242.051178,4215.384512,4229.230666,4230.256307,4217.435794,4216.410153,4215.384512,4145.128104,2581.025578,4215.897333,4232.820409,4215.897333,4243.58964,4236.410153
91,0,4235.384512,4212.82041,4232.820409,4229.743486,4214.871692,4216.922974,4213.846051,4136.410155,2574.358911,4219.487076,4231.794768,4219.999897,4246.153742,4227.692204
92,0,4232.307589,4212.307589,4231.794768,4230.256307,4214.871692,4217.948615,4214.871692,4143.076822,2577.435834,4222.563999,4233.84605,4217.435794,4253.84605,4230.769127
93,0,4239.999896,4216.922974,4230.256307,4233.84605,4215.384512,4216.922974,4213.846051,4147.692206,2574.871732,4218.974256,4236.922973,4215.384512,4255.897332,4244.10246
94,0,4242.051178,4214.871692,4232.820409,4232.820409,4213.33323,4215.384512,4212.82041,4142.051181,2559.487117,4222.563999,4233.84605,4221.025538,4252.820409,4244.615281
95,0,4233.84605,4210.769128,4232.307589,4232.307589,4216.410153,4217.435794,4216.410153,4143.589642,2555.897373,4227.692204,4225.640922,4228.205025,4251.794768,4237.435794
96,0,4231.281948,4212.307589,4228.717845,4231.794768,4221.025538,4218.974256,4218.461435,4152.820411,2557.948655,4222.563999,4224.102461,4225.640922,4250.769127,4238.461435
97,0,4226.666563,4207.179384,4223.58964,4223.58964,4215.384512,4216.922974,4215.384512,4146.153745,2548.717886,4210.256307,4228.205025,4214.871692,4244.10246,4230.769127
98,0,4219.487076,4203.07682,4223.07682,4220.512717,4209.743487,4216.410153,4213.33323,4132.820412,2539.999938,4211.281948,4227.179384,4211.794769,4237.948614,4227.692204
99,0,4227.179384,4207.179384,4219.999897,4230.769127,4209.743487,4216.410153,4214.358871,4128.205027,2543.076861,4222.051179,4222.563999,4210.256307,4237.435794,4232.820409
100,0,4237.948614,4213.33323,4217.948615,4238.461435,4216.922974,4216.922974,4214.358871,4135.384514,2546.666604,4226.153743,4228.717845,4211.794769,4247.179383,4237.435794
101,0,4227.692204,4209.743487,4222.051179,4228.717845,4219.487076,4216.922974,4214.871692,4146.666565,2553.333271,4226.666563,4233.33323,4218.974256,4250.256306,4233.84605
102,0,4219.999897,4204.615282,4221.538358,4219.487076,4214.871692,4216.410153,4215.897333,4151.28195,2561.025578,4226.153743,4223.07682,4223.07682,4244.10246,4222.563999
103,0,4231.794768,4206.666564,4214.358871,4227.179384,4214.871692,4215.384512,4214.871692,4141.02554,2556.410194,4225.640922,4223.07682,4219.999897,4244.615281,4226.666563
104,0,4233.33323,4212.307589,4215.384512,4233.84605,4221.025538,4214.871692,4213.33323,4133.846053,2550.256348,4225.128102,4229.743486,4213.846051,4246.666563,4244.10246
105,0,4221.538358,4207.692205,4217.948615,4231.794768,4214.871692,4215.897333,4213.33323,4134.871694,2555.384553,4215.897333,4223.07682,4208.717846,4238.974255,4233.84605
106,0,4220.512717,4196.922974,4214.871692,4228.717845,4206.153743,4217.435794,4215.897333,4134.358873,2565.128142,4203.589641,4218.974256,4211.794769,4235.384512,4210.256307
107,0,4222.563999,4195.897333,4214.871692,4225.640922,4214.871692,4217.948615,4221.025538,4138.461437,2573.846091,4210.256307,4226.666563,4215.897333,4241.538358,4217.948615
108,0,4223.07682,4205.128102,4215.897333,4226.666563,4223.58964,4217.435794,4222.051179,4147.179386,2585.640962,4226.666563,4229.743486,4216.922974,4245.128101,4231.281948
109,0,4227.179384,4212.307589,4210.256307,4235.384512,4220.512717,4218.461435,4219.487076,4149.743488,2596.410193,4228.717845,4227.692204,4216.410153,4249.230665,4226.153743
110,0,4219.487076,4208.205025,4209.230666,4234.871691,4216.922974,4218.461435,4217.435794,4144.615283,2594.871731,4225.640922,4223.07682,4216.410153,4248.717845,4219.487076
111,0,4214.871692,4203.589641,4216.922974,4227.692204,4217.435794,4218.461435,4216.410153,4138.461437,2586.153783,4235.897332,4219.999897,4218.974256,4243.076819,4218.974256
112,0,4226.666563,4205.640923,4217.948615,4231.281948,4216.922974,4218.461435,4215.897333,4134.871694,2583.07686,4233.84605,4223.07682,4216.922974,4239.487076,4223.07682
113,0,4224.615281,4205.128102,4209.743487,4228.205025,4212.307589,4216.410153,4213.846051,4131.794771,2585.128142,4210.256307,4219.999897,4204.615282,4236.410153,4222.051179
114,0,4213.846051,4202.564,4209.230666,4220.512717,4209.230666,4215.897333,4215.384512,4129.743489,2590.256347,4203.07682,4212.82041,4199.487077,4233.33323,4216.410153
115,0,4225.640922,4209.230666,4217.435794,4227.692204,4217.435794,4219.487076,4219.487076,4135.897335,2598.974295,4224.615281,4221.538358,4214.871692,4243.076819,4224.615281
116,0,4228.205025,4213.846051,4215.384512,4235.897332,4224.102461,4216.922974,4217.435794,4138.974258,2601.025577,4233.33323,4230.256307,4223.58964,4253.84605,4234.358871
117,0,4216.410153,4211.794769,4210.256307,4231.281948,4222.051179,4215.384512,4213.846051,4136.410155,2596.923013,4222.051179,4228.205025,4218.461435,4252.307588,4233.33323
118,0,4220.512717,4214.358871,4212.82041,4230.769127,4224.615281,4223.07682,4215.897333,4138.461437,2608.205064,4225.640922,4234.358871,4214.358871,4254.35887,4231.794768
119,0,4227.179384,4221.025538,4217.948615,4239.999896,4229.230666,4226.153743,4217.435794,4144.615283,2628.717884,4244.10246,4245.640922,4217.435794,4262.051178,4232.307589
120,0,4221.538358,4224.102461,4222.563999,4241.025537,4226.666563,4225.128102,4217.948615,4148.717847,2644.61532,4243.58964,4241.538358,4224.615281,4259.999896,4234.358871
121,0,4225.640922,4223.07682,4224.102461,4234.871691,4226.666563,4226.153743,4220.512717,4148.205027,2649.743525,4226.666563,4229.743486,4225.640922,4252.820409,4240.512717
122,0,4234.358871,4219.999897,4217.435794,4234.871691,4231.794768,4222.563999,4219.999897,4138.461437,2649.743525,4217.948615,4222.563999,4216.922974,4247.179383,4235.897332
123,0,4232.307589,4219.999897,4211.281948,4236.922973,4226.666563,4215.897333,4216.922974,4127.692207,2658.461473,4221.538358,4222.563999,4214.871692,4243.58964,4229.743486
124,0,4222.051179,4219.487076,4212.82041,4233.33323,4222.563999,4217.948615,4217.948615,4130.76913,2678.461473,4225.128102,4220.512717,4220.512717,4243.58964,4232.307589
125,0,4211.281948,4213.33323,4209.743487,4229.230666,4226.666563,4221.025538,4219.487076,4134.871694,2691.281985,4223.07682,4212.307589,4218.461435,4236.922973,4219.487076
126,0,4216.410153,4211.281948,4207.692205,4232.307589,4226.666563,4219.487076,4217.435794,4132.307591,2693.333267,4217.435794,4216.922974,4215.897333,4235.897332,4218.461435
127,0,4231.281948,4214.358871,4216.410153,4233.33323,4222.051179,4221.025538,4216.410153,4135.384514,2696.923011,4216.922974,4235.384512,4221.538358,4256.922973,4243.58964
128,0,4228.205025,4206.666564,4222.051179,4229.743486,4222.563999,4220.512717,4216.410153,4139.999899,2704.615318,4231.281948,4243.076819,4229.230666,4279.999895,4251.281947
0,0,4219.999897,4196.922974,4218.974256,4228.205025,4223.07682,4220.512717,4218.461435,4144.615283,2711.794805,4242.051178,4239.487076,4232.307589,4284.102459,4237.435794
1,0,4234.871691,4200.512718,4216.410153,4231.794768,4226.153743,4222.563999,4223.07682,4154.358873,2710.769164,4241.025537,4243.58964,4234.358871,4284.102459,4243.076819
2,0,4245.128101,4202.051179,4218.461435,4230.769127,4228.717845,4221.025538,4223.58964,4155.384514,2696.41019,4237.435794,4245.640922,4232.820409,4283.076818,4257.948614
3,0,4233.33323,4199.999897,4217.435794,4230.256307,4227.179384,4219.999897,4218.461435,4143.589642,2671.794806,4232.307589,4236.410153,4227.179384,4272.820408,4253.333229
4,0,4219.999897,4198.461436,4215.384512,4233.33323,4223.58964,4222.051179,4217.435794,4134.871694,2647.692243,4226.153743,4226.153743,4221.025538,4262.563998,4233.84605
5,0,4208.717846,4194.358872,4219.487076,4230.769127,4219.999897,4220.512717,4218.461435,4134.358873,2623.589679,4224.615281,4222.051179,4223.58964,4256.922973,4218.461435
6,0,4208.717846,4191.794769,4223.58964,4229.230666,4222.051179,4218.461435,4216.922974,4132.307591,2598.461475,4224.615281,4226.666563,4228.717845,4258.461434,4231.281948
7,0,4227.692204,4192.82041,4219.999897,4226.153743,4224.615281,4219.487076,4218.974256,4134.871694,2586.153783,4222.563999,4233.33323,4228.205025,4264.61528,4255.384511
8,0,4235.384512,4193.333231,4213.33323,4222.563999,4217.435794,4217.435794,4218.974256,4145.128104,2581.538398,4227.692204,4232.820409,4228.205025,4266.153742,4251.794768
9,0,4225.640922,4192.30759,4213.846051,4224.615281,4209.743487,4213.846051,4214.871692,4145.128104,2561.025578,4231.281948,4230.256307,4227.179384,4259.999896,4235.897332
10,0,4217.948615,4189.743487,4217.435794,4225.128102,4212.307589,4215.384512,4213.33323,4132.820412,2539.487117,4218.974256,4224.102461,4222.051179,4250.769127,4229.743486
11,0,4205.640923,4183.076821,4215.384512,4222.051179,4212.82041,4215.384512,4215.897333,4127.692207,2536.923015,4212.307589,4215.897333,4219.487076,4244.10246,4224.615281
12,0,4205.640923,4184.615282,4211.794769,4224.615281,4209.743487,4213.846051,4220.512717,4137.948617,2547.692245,4224.102461,4213.846051,4222.563999,4248.717845,4218.974256
13,0,4230.769127,4198.461436,4215.384512,4231.281948,4217.435794,4216.922974,4221.025538,4148.205027,2562.56404,4230.769127,4221.538358,4227.692204,4258.461434,4225.640922
14,0,4233.84605,4205.640923,4219.487076,4229.743486,4225.128102,4217.948615,4217.435794,4145.640924,2577.435834,4221.538358,4222.563999,4226.666563,4258.461434,4234.871691
15,0,4219.487076,4196.922974,4209.743487,4227.692204,4212.82041,4212.307589,4213.33323,4135.897335,2582.051219,4216.410153,4209.743487,4219.999897,4249.743486,4230.256307
16,0,4228.205025,4190.769128,4202.051179,4229.230666,4203.589641,4210.256307,4213.33323,4136.410155,2586.666603,4226.153743,4205.640923,4224.615281,4250.256306,4226.666563
17,0,4232.820409,4202.051179,4214.871692,4228.205025,4214.358871,4215.384512,4214.871692,4147.692206,2593.33327,4235.384512,4218.461435,4239.999896,4262.051178,4239.487076
18,0,4221.025538,4208.205025,4220.512717,4229.230666,4223.58964,4218.974256,4215.384512,4148.205027,2583.58968,4240.512717,4223.58964,4239.999896,4266.666562,4241.025537
19,0,4222.051179,4197.435795,4211.794769,4230.769127,4222.563999,4218.461435,4217.948615,4145.128104,2570.769168,4245.128101,4213.846051,4226.666563,4264.10246,4226.666563
20,0,4232.307589,4197.435795,4214.358871,4231.281948,4226.666563,4219.999897,4218.461435,4155.384514,2567.692245,4247.692204,4216.922974,4222.563999,4268.205024,4235.384512
21,0,4238.461435,4208.717846,4216.922974,4231.281948,4226.666563,4219.999897,4216.410153,4156.410155,2551.794809,4243.58964,4222.051179,4216.922974,4268.205024,4257.948614
22,0,4239.487076,4209.230666,4209.743487,4232.307589,4216.922974,4217.435794,4214.871692,4143.076822,2527.179425,4236.410153,4209.230666,4206.153743,4259.487075,4247.692204
23,0,4228.205025,4202.051179,4210.256307,4231.281948,4209.743487,4216.410153,4217.435794,4139.999899,2511.79481,4231.281948,4202.051179,4205.128102,4253.84605,4227.692204
24,0,4229.230666,4202.051179,4221.538358,4230.256307,4216.410153,4218.974256,4222.563999,4148.205027,2507.179426,4226.666563,4213.846051,4217.948615,4260.512716,4236.410153
25,0,4241.538358,4205.640923,4223.58964,4232.307589,4224.615281,4223.58964,4227.692204,4149.230668,2508.717887,4234.358871,4220.512717,4228.205025,4265.128101,4248.205024
26,0,4231.281948,4204.102461,4223.07682,4233.33323,4224.102461,4222.563999,4230.769127,4143.076822,2503.589682,4248.205024,4209.230666,4228.205025,4261.538357,4242.563999
27,0,4220.512717,4200.512718,4228.717845,4231.794768,4224.615281,4219.999897,4227.692204,4141.02554,2489.743529,4241.025537,4199.487077,4225.128102,4257.948614,4232.307589
28,0,4225.128102,4197.435795,4225.128102,4230.769127,4226.153743,4218.974256,4222.051179,4144.615283,2486.153785,4229.230666,4207.179384,4221.538358,4257.435793,4228.717845
29,0,4226.153743,4196.922974,4216.410153,4234.358871,4219.999897,4216.922974,4217.948615,4152.820411,2494.358913,4239.487076,4217.435794,4215.384512,4255.384511,4243.076819
30,0,4224.615281,4195.897333,4215.897333,4232.307589,4216.922974,4217.948615,4217.435794,4152.307591,2482.564042,4246.153742,4214.358871,4216.922974,4254.871691,4252.820409
31,0,4223.07682,4195.384513,4218.974256,4223.58964,4220.512717,4221.025538,4216.922974,4138.974258,2446.153786,4233.33323,4205.640923,4220.512717,4255.384511,4233.33323
32,0,4214.358871,4192.82041,4217.948615,4218.461435,4218.461435,4219.487076,4215.897333,4124.102463,2405.128146,4223.58964,4193.846051,4209.743487,4243.076819,4211.794769
33,0,4214.871692,4189.743487,4216.410153,4221.025538,4217.435794,4216.410153,4215.384512,4123.076822,2378.974301,4222.051179,4178.974257,4205.128102,4230.769127,4215.384512
34,0,4225.640922,4193.846051,4216.922974,4223.58964,4221.025538,4219.999897,4215.384512,4132.820412,2369.230711,4220.512717,4185.640923,4214.358871,4239.487076,4231.794768
35,0,4226.153743,4203.07682,4216.410153,4225.640922,4222.563999,4219.999897,4217.435794,4141.02554,2362.051224,4229.743486,4202.564,4212.82041,4251.281947,4235.897332
36,0,4221.538358,4205.640923,4215.384512,4226.153743,4224.102461,4217.435794,4218.974256,4142.564001,2349.230712,4239.999896,4201.538359,4208.205025,4248.717845,4223.58964
37,0,4221.025538,4205.128102,4211.794769,4219.999897,4225.128102,4220.512717,4218.461435,4144.615283,2333.333276,4241.025537,4199.999897,4208.205025,4245.640922,4215.897333
38,0,4212.82041,4208.717846,4207.692205,4215.384512,4221.538358,4222.563999,4222.051179,4148.717847,2326.66661,4235.897332,4200.512718,4202.564,4248.205024,4218.974256
39,0,4203.07682,4207.692205,4203.589641,4216.410153,4220.512717,4217.948615,4224.615281,4143.589642,2321.538405,4235.897332,4192.30759,4199.999897,4247.179383,4216.410153
40,0,4210.769128,4203.07682,4201.025538,4217.435794,4224.615281,4215.897333,4217.948615,4130.256309,2311.281995,4242.051178,4190.256308,4202.051179,4243.58964,4213.33323
41,0,4225.640922,4205.128102,4202.051179,4217.948615,4226.153743,4218.974256,4214.358871,4125.128104,2311.281995,4239.487076,4198.461436,4201.025538,4244.10246,4217.948615
42,0,4219.999897,4203.589641,4201.025538,4214.871692,4221.025538,4217.948615,4215.897333,4121.538361,2317.948661,4225.640922,4194.871692,4197.948615,4244.615281,4216.410153
43,0,4209.743487,4202.564,4200.512718,4215.897333,4217.948615,4214.871692,4213.846051,4115.384515,2323.589687,4224.102461,4186.666564,4198.974256,4245.128101,4215.897333
44,0,4212.82041,4202.564,4198.461436,4213.33323,4216.922974,4215.897333,4213.33323,4115.384515,2334.871738,4232.307589,4187.692205,4202.051179,4244.615281,4211.794769
45,0,4215.384512,4195.897333,4189.743487,4203.07682,4213.33323,4215.384512,4216.410153,4118.974258,2349.230712,4227.692204,4184.615282,4203.589641,4238.461435,4197.435795
54,0,4212.307589,4203.589641,4187.179385,4209.743487,4220.512717,4214.358871,4216.922974,4121.538361,2305.128149,4223.58964,4178.974257,4197.948615,4231.794768,4205.640923
55,0,4233.33323,4215.384512,4195.897333,4214.871692,4221.538358,4217.948615,4225.640922,4136.922976,2299.999944,4218.461435,4195.384513,4208.717846,4247.179383,4224.102461
56,0,4237.435794,4225.128102,4207.692205,4224.102461,4230.256307,4222.051179,4234.871691,4149.743488,2308.205072,4235.384512,4199.999897,4222.051179,4255.897332,4231.281948
57,0,4221.538358,4212.307589,4195.384513,4214.871692,4222.051179,4216.922974,4231.281948,4148.205027,2305.128149,4247.692204,4195.897333,4216.410153,4250.769127,4222.563999
58,0,4225.640922,4202.051179,4187.179385,4205.640923,4210.769128,4212.307589,4229.230666,4148.717847,2294.871739,4244.10246,4190.769128,4212.307589,4251.281947,4226.666563
59,0,4243.58964,4214.871692,4201.538359,4215.897333,4215.384512,4218.461435,4231.794768,4150.256309,2296.923021,4252.820409,4193.333231,4222.051179,4257.948614,4232.820409
60,0,4239.999896,4220.512717,4204.102461,4223.07682,4221.538358,4222.051179,4231.281948,4146.666565,2303.589687,4256.410152,4197.948615,4224.102461,4256.922973,4223.07682
61,0,4223.58964,4209.743487,4191.281949,4218.974256,4222.051179,4217.948615,4230.256307,4144.102463,2302.564046,4236.410153,4194.358872,4217.948615,4247.179383,4224.102461
62,0,4222.051179,4205.128102,4186.666564,4212.307589,4219.487076,4218.974256,4229.743486,4144.102463,2303.589687,4231.281948,4188.205026,4216.410153,4238.461435,4225.640922
63,0,4221.025538,4204.615282,4184.102462,4205.640923,4213.846051,4219.999897,4229.743486,4145.640924,2315.384559,4239.999896,4183.589641,4212.82041,4234.871691,4206.153743
64,0,4214.871692,4204.615282,4180.512718,4205.640923,4213.846051,4219.487076,4231.794768,4157.435796,2338.461481,4236.410153,4184.615282,4212.307589,4239.487076,4203.589641
65,0,4218.974256,4210.256307,4183.076821,4213.846051,4223.07682,4221.538358,4232.820409,4168.717847,2365.640968,4245.640922,4192.82041,4221.025538,4250.769127,4227.692204
66,0,4226.666563,4212.82041,4188.205026,4218.461435,4227.179384,4223.58964,4231.794768,4165.128103,2382.051224,4265.640921,4204.102461,4224.615281,4259.999896,4237.435794
67,0,4230.256307,4209.743487,4187.179385,4213.33323,4218.461435,4221.025538,4233.33323,4155.897334,2386.153788,4258.461434,4206.153743,4221.025538,4263.589639,4227.692204
67,0,4230.256307,4209.743487,4187.179385,4213.33323,4218.461435,4221.025538,4233.33323,4155.897334,2386.153788,4258.461434,4206.153743,4221.025538,4263.589639,4227.692204
68,0,4229.230666,4209.230666,4181.025539,4204.615282,4214.358871,4217.948615,4232.307589,4149.230668,2385.640967,4239.999896,4197.948615,4219.487076,4258.974255,4223.07682
69,0,4225.128102,4212.307589,4177.948616,4205.128102,4216.922974,4216.410153,4226.666563,4144.615283,2386.666608,4241.025537,4193.846051,4219.487076,4250.256306,4220.512717
70,0,4219.999897,4215.384512,4185.128103,4215.897333,4215.384512,4217.435794,4225.640922,4142.051181,2382.051224,4235.384512,4195.384513,4215.897333,4245.128101,4212.82041
71,0,4217.948615,4217.948615,4188.205026,4220.512717,4213.33323,4219.487076,4223.07682,4136.922976,2371.794814,4227.692204,4189.743487,4211.281948,4243.076819,4212.307589
72,0,4226.153743,4215.384512,4181.025539,4214.358871,4214.358871,4218.461435,4217.435794,4128.205027,2364.615327,4230.256307,4178.974257,4206.666564,4237.435794,4214.871692
73,0,4229.743486,4212.307589,4180.512718,4211.281948,4212.82041,4216.922974,4215.384512,4132.307591,2372.307634,4229.743486,4183.076821,4209.230666,4235.897332,4212.82041
82,0,4212.307589,4194.871692,4177.948616,4203.07682,4201.025538,4213.33323,4216.410153,4114.871694,2297.948662,4204.102461,4172.820411,4203.589641,4218.461435,4206.153743
83,0,4217.948615,4195.384513,4183.589641,4208.205025,4201.025538,4214.871692,4214.358871,4126.153745,2288.717893,4215.384512,4174.871693,4207.692205,4221.025538,4218.974256
84,0,4198.461436,4191.281949,4184.102462,4214.358871,4202.051179,4213.846051,4214.358871,4133.846053,2290.769175,4220.512717,4181.538359,4210.256307,4220.512717,4208.717846
85,0,4207.692205,4205.128102,4186.666564,4216.410153,4215.384512,4212.82041,4216.922974,4133.846053,2295.384559,4228.717845,4191.794769,4214.871692,4228.717845,4207.179384
86,0,4223.58964,4210.769128,4193.846051,4216.410153,4223.07682,4215.384512,4220.512717,4142.051181,2297.435841,4243.58964,4195.384513,4218.461435,4235.384512,4211.281948
87,0,4213.33323,4198.461436,4193.333231,4214.358871,4213.33323,4218.461435,4225.640922,4148.205027,2295.384559,4247.179383,4191.794769,4215.897333,4231.794768,4212.307589
88,0,4214.358871,4204.615282,4184.102462,4214.358871,4208.717846,4217.948615,4224.102461,4137.435796,2286.666611,4237.435794,4192.30759,4211.281948,4225.128102,4222.563999
89,0,4219.999897,4217.435794,4178.974257,4216.410153,4208.205025,4215.897333,4214.358871,4121.538361,2274.358919,4216.410153,4187.179385,4202.051179,4218.461435,4214.358871
90,0,4197.948615,4207.179384,4178.974257,4214.871692,4206.666564,4213.846051,4210.256307,4117.948617,2273.846098,4199.999897,4172.30759,4193.846051,4207.692205,4179.999898
91,0,4178.461436,4196.410154,4175.384513,4210.769128,4204.102461,4212.307589,4212.307589,4115.384515,2282.564047,4192.30759,4159.487078,4191.794769,4192.82041,4165.128103
92,0,4184.615282,4201.538359,4174.871693,4212.82041,4206.153743,4214.871692,4213.846051,4111.794771,2293.846098,4186.153744,4158.974257,4192.30759,4192.30759,4182.564
93,0,4190.769128,4206.666564,4183.076821,4215.384512,4217.948615,4216.410153,4214.871692,4117.948617,2314.358918,4195.897333,4171.281949,4195.384513,4204.615282,4195.897333
94,0,4194.871692,4206.666564,4187.179385,4213.846051,4224.615281,4215.384512,4214.358871,4125.128104,2335.897379,4214.358871,4183.589641,4200.512718,4208.717846,4191.281949
95,0,4202.051179,4209.230666,4183.589641,4210.769128,4216.410153,4216.410153,4213.33323,4127.692207,2355.897378,4213.33323,4182.564,4199.487077,4205.128102,4181.025539
96,0,4199.487077,4213.846051,4185.128103,4213.33323,4212.82041,4219.487076,4217.435794,4135.897335,2390.769172,4208.205025,4182.564,4201.025538,4210.256307,4179.487077
97,0,4191.281949,4214.871692,4190.256308,4218.974256,4222.563999,4221.538358,4219.487076,4145.640924,2428.205069,4220.512717,4189.230667,4208.717846,4217.435794,4191.794769
98,0,4195.897333,4213.33323,4190.769128,4219.999897,4227.179384,4222.563999,4219.487076,4142.564001,2445.128145,4233.33323,4189.230667,4208.205025,4218.974256,4201.025538
99,0,4208.205025,4218.974256,4189.743487,4218.461435,4223.58964,4219.999897,4218.974256,4127.692207,2444.615325,4223.07682,4184.102462,4199.487077,4216.410153,4196.922974
100,0,4214.358871,4229.230666,4187.179385,4217.435794,4225.640922,4217.435794,4216.410153,4117.435797,2444.615325,4201.025538,4182.05118,4196.922974,4214.358871,4197.435795
101,0,4219.487076,4232.307589,4189.743487,4220.512717,4227.179384,4217.948615,4213.846051,4116.922976,2456.410196,4197.948615,4181.025539,4201.538359,4219.487076,4207.692205
102,0,4233.33323,4235.384512,4199.999897,4225.640922,4225.128102,4219.487076,4215.384512,4121.538361,2468.717888,4211.281948,4185.640923,4208.205025,4230.769127,4220.512717
103,0,4247.179383,4246.666563,4204.102461,4229.743486,4229.743486,4218.974256,4221.025538,4130.76913,2468.205068,4218.974256,4196.410154,4212.307589,4240.512717,4233.33323
104,0,4256.410152,4254.871691,4202.564,4228.717845,4226.666563,4216.922974,4221.025538,4138.461437,2450.25635,4210.769128,4197.435795,4216.410153,4240.512717,4240.512717
105,0,4282.563998,4261.025537,4206.666564,4229.230666,4213.33323,4214.871692,4214.358871,4131.28195,2422.051223,4199.999897,4193.333231,4219.999897,4241.025537,4250.769127
106,0,4324.102458,4282.051177,4211.794769,4233.33323,4207.179384,4215.897333,4209.230666,4114.358874,2390.769172,4191.281949,4190.256308,4218.461435,4250.769127,4278.461434
107,0,4368.717842,4312.307587,4215.897333,4234.871691,4209.230666,4215.897333,4208.205025,4105.640925,2355.897378,4190.769128,4187.179385,4227.692204,4259.999896,4311.794766
108,0,4405.128097,4330.769125,4224.102461,4238.461435,4210.256307,4215.384512,4208.717846,4106.666566,2318.974302,4193.333231,4193.333231,4244.615281,4263.076819,4340.512714
109,0,4431.794763,4341.538355,4236.922973,4252.307588,4214.358871,4215.897333,4205.128102,4110.76913,2293.333277,4195.384513,4212.307589,4256.410152,4276.410152,4376.410149
110,0,4470.256301,4358.461432,4250.769127,4265.128101,4222.051179,4215.384512,4202.564,4111.281951,2276.410201,4203.589641,4224.615281,4266.153742,4290.769126,4409.230661
111,0,4512.820402,4374.358867,4261.538357,4268.205024,4224.615281,4215.897333,4209.743487,4109.743489,2255.897381,4206.666564,4221.025538,4278.461434,4288.717844,4421.025533
112,0,4528.717838,4375.384508,4262.563998,4265.640921,4217.435794,4216.410153,4214.358871,4108.717848,2236.410202,4194.871692,4217.948615,4284.61528,4285.1281,4424.615276
113,0,4518.974248,4371.281944,4258.461434,4263.589639,4209.743487,4218.974256,4211.794769,4109.230669,2232.307638,4182.564,4217.948615,4283.589639,4282.563998,4427.179379
114,0,4498.974249,4367.692201,4262.051178,4261.538357,4211.281948,4221.538358,4211.281948,4112.820412,2233.333279,4186.153744,4212.82041,4280.512716,4273.333229,4418.46143
115,0,4492.307582,4364.615278,4268.717844,4264.10246,4217.435794,4222.051179,4213.33323,4115.384515,2234.87174,4201.025538,4213.33323,4276.922972,4272.820408,4409.230661
116,0,4497.435787,4360.512714,4262.051178,4266.153742,4223.58964,4224.102461,4216.410153,4115.897335,2246.153791,4213.33323,4225.640922,4278.461434,4282.051177,4409.743482
117,0,4476.410147,4343.589637,4248.205024,4254.871691,4225.640922,4224.102461,4218.461435,4115.384515,2249.743535,4214.358871,4231.281948,4276.410152,4277.948613,4400.512713
118,0,4426.153738,4317.435792,4239.487076,4243.58964,4215.384512,4222.563999,4217.435794,4112.820412,2240.512766,4207.692205,4217.435794,4265.640921,4260.512716,4365.128098
119,0,4388.717841,4303.076818,4239.999896,4244.615281,4210.769128,4225.640922,4219.487076,4115.897335,2241.025586,4208.205025,4210.256307,4258.461434,4256.410152,4335.384509
120,0,4367.692201,4301.025536,4241.025537,4244.615281,4222.563999,4231.281948,4228.205025,4123.076822,2250.256355,4215.897333,4220.512717,4254.35887,4262.051178,4323.589638
121,0,4351.281945,4291.281946,4234.871691,4236.922973,4228.717845,4227.692204,4229.230666,4126.153745,2243.076868,4215.384512,4221.025538,4249.743486,4259.999896,4311.794766
122,0,4337.948612,4272.307588,4223.58964,4229.230666,4219.487076,4218.974256,4221.538358,4123.589643,2230.256356,4208.717846,4201.538359,4242.563999,4247.179383,4292.820408
123,0,4312.820407,4259.487075,4218.974256,4229.230666,4215.384512,4217.948615,4217.948615,4117.435797,2217.435843,4207.692205,4193.846051,4233.33323,4239.999896,4273.846049
3,0,4214.358871,4215.384512,4213.846051,4214.871692,4216.922974,4219.999897,4229.230666,4130.256309,2137.948666,4211.281948,4189.230667,4214.358871,4212.307589,4212.307589
4,0,4198.461436,4201.538359,4213.33323,4213.846051,4210.256307,4216.410153,4225.640922,4126.153745,2129.743538,4213.33323,4189.743487,4220.512717,4210.769128,4198.461436
5,0,4185.640923,4198.974256,4210.769128,4215.384512,4219.999897,4219.487076,4231.281948,4132.307591,2129.230717,4235.897332,4200.512718,4224.102461,4216.410153,4200.512718
6,0,4183.589641,4194.358872,4202.051179,4205.640923,4221.025538,4219.999897,4228.717845,4129.230668,2124.102512,4243.58964,4201.025538,4218.461435,4215.897333,4187.692205
7,0,4190.769128,4187.692205,4197.948615,4204.615282,4208.205025,4217.435794,4217.948615,4126.666566,2120.512769,4227.179384,4198.461436,4213.33323,4213.33323,4178.974257
8,0,4187.692205,4189.230667,4202.051179,4213.846051,4208.717846,4218.974256,4221.538358,4131.794771,2132.30764,4222.563999,4201.538359,4215.384512,4215.384512,4188.717846
9,0,4175.897334,4192.82041,4208.717846,4214.358871,4216.922974,4219.487076,4231.281948,4133.846053,2149.230717,4230.256307,4203.07682,4221.538358,4214.358871,4191.794769
10,0,4184.102462,4193.846051,4209.230666,4214.358871,4211.794769,4218.974256,4226.153743,4131.794771,2159.487127,4223.58964,4201.025538,4226.666563,4210.769128,4188.717846
11,0,4201.025538,4196.410154,4208.717846,4217.948615,4210.769128,4216.410153,4222.051179,4126.666566,2164.102511,4216.922974,4202.564,4227.179384,4215.384512,4199.999897
12,0,4192.82041,4199.487077,4211.794769,4217.435794,4218.974256,4216.922974,4230.256307,4130.76913,2179.487126,4223.58964,4202.564,4225.640922,4218.461435,4207.179384
13,0,4178.974257,4202.051179,4212.307589,4216.410153,4222.563999,4224.615281,4232.820409,4138.461437,2204.10251,4231.281948,4197.435795,4225.128102,4218.461435,4195.384513
14,0,4186.666564,4204.102461,4209.230666,4218.974256,4225.128102,4226.666563,4228.717845,4137.435796,2213.8461,4236.410153,4201.538359,4226.666563,4221.538358,4188.717846
15,0,4186.666564,4201.025538,4206.666564,4217.435794,4225.640922,4218.461435,4226.153743,4134.871694,2213.8461,4232.820409,4213.33323,4228.205025,4218.461435,4192.82041
16,0,4174.358872,4193.333231,4199.999897,4207.692205,4216.410153,4216.410153,4222.051179,4131.28195,2219.487125,4224.615281,4210.256307,4220.512717,4211.281948,4189.743487
17,0,4174.871693,4189.230667,4192.30759,4199.487077,4209.230666,4219.487076,4218.461435,4126.153745,2228.205074,4229.230666,4198.974256,4208.205025,4212.307589,4183.076821
18,0,4180.512718,4198.461436,4199.487077,4207.179384,4217.435794,4219.487076,4218.974256,4127.692207,2238.461484,4234.871691,4203.07682,4210.256307,4218.461435,4187.692205
19,0,4180.512718,4208.205025,4212.307589,4217.948615,4222.563999,4221.538358,4218.461435,4125.128104,2242.564048,4221.538358,4204.615282,4223.07682,4217.435794,4187.179385
20,0,4175.384513,4205.128102,4208.205025,4213.846051,4218.461435,4222.563999,4222.563999,4116.922976,2239.487125,4213.846051,4194.358872,4226.153743,4210.769128,4174.871693
21,0,4171.79477,4195.384513,4200.512718,4204.615282,4218.461435,4217.435794,4228.205025,4119.999899,2250.769176,4221.538358,4191.281949,4215.384512,4209.230666,4174.871693
22,0,4182.05118,4189.230667,4199.999897,4202.564,4217.948615,4216.410153,4221.538358,4121.538361,2262.564047,4221.538358,4191.794769,4205.128102,4210.256307,4189.230667
23,0,4190.769128,4192.82041,4199.999897,4202.564,4211.794769,4222.051179,4215.384512,4111.281951,2258.461483,4214.358871,4190.256308,4204.102461,4208.717846,4188.717846
24,0,4173.846052,4195.384513,4202.564,4202.051179,4211.281948,4224.102461,4223.07682,4118.461438,2267.179432,4219.487076,4197.435795,4207.692205,4207.179384,4180.512718
25,0,4150.769129,4188.205026,4198.974256,4202.564,4212.82041,4218.974256,4223.07682,4128.205027,2288.717893,4219.999897,4203.07682,4210.769128,4208.205025,4178.461436
26,0,4163.076821,4187.692205,4188.717846,4201.538359,4213.33323,4216.922974,4216.410153,4121.538361,2297.948662,4213.846051,4198.974256,4211.794769,4208.205025,4174.358872
27,0,4187.692205,4200.512718,4189.230667,4202.051179,4217.948615,4219.487076,4224.102461,4126.153745,2313.333277,4220.512717,4205.640923,4212.82041,4216.410153,4182.05118
28,0,4185.640923,4206.666564,4204.102461,4209.743487,4223.07682,4221.025538,4233.33323,4136.922976,2344.615327,4227.179384,4214.358871,4216.410153,4225.640922,4193.846051
29,0,4175.384513,4198.974256,4204.615282,4214.871692,4219.999897,4217.435794,4229.743486,4132.307591,2369.743532,4223.58964,4206.666564,4216.410153,4222.051179,4189.743487
30,0,4179.999898,4196.922974,4196.922974,4212.307589,4216.922974,4212.82041,4222.563999,4123.589643,2390.769172,4222.563999,4199.487077,4215.384512,4215.897333,4188.205026
31,0,4191.281949,4207.692205,4207.179384,4211.281948,4220.512717,4214.358871,4224.102461,4127.692207,2421.538402,4225.640922,4206.153743,4225.128102,4222.051179,4196.922974
32,0,4190.769128,4209.743487,4214.871692,4212.307589,4219.999897,4217.948615,4224.615281,4125.640925,2441.538402,4227.692204,4208.717846,4227.179384,4225.128102,4190.256308
33,0,4175.897334,4197.435795,4203.07682,4204.615282,4216.410153,4216.922974,4219.487076,4117.435797,2449.230709,4229.743486,4198.974256,4208.205025,4213.846051,4171.281949
34,0,4162.05118,4187.179385,4193.333231,4199.487077,4214.358871,4216.410153,4216.410153,4111.281951,2459.99994,4218.461435,4192.82041,4197.948615,4207.179384,4166.153744
35,0,4167.692206,4188.717846,4197.948615,4202.564,4212.82041,4219.487076,4217.948615,4112.820412,2475.897375,4207.692205,4202.051179,4208.205025,4215.897333,4173.333231
36,0,4179.487077,4190.256308,4197.948615,4202.564,4210.256307,4217.948615,4219.487076,4118.461438,2491.794811,4215.384512,4209.743487,4211.281948,4218.461435,4178.974257
45,0,4162.564001,4191.281949,4210.256307,4201.025538,4218.461435,4219.999897,4217.435794,4115.384515,2639.487115,4206.153743,4199.487077,4212.82041,4207.179384,4168.717847
46,0,4174.358872,4197.948615,4202.051179,4206.153743,4223.07682,4219.999897,4217.435794,4113.333233,2656.410191,4217.435794,4204.102461,4205.640923,4211.281948,4180.512718
47,0,4184.615282,4208.205025,4195.384513,4208.205025,4222.051179,4215.897333,4213.33323,4106.666566,2668.205063,4217.435794,4201.538359,4198.461436,4209.743487,4180.512718
48,0,4179.999898,4213.33323,4195.384513,4205.640923,4218.974256,4215.384512,4210.256307,4105.128105,2698.974293,4212.82041,4198.461436,4199.999897,4204.615282,4172.30759
49,0,4175.897334,4211.794769,4199.487077,4206.666564,4213.846051,4215.897333,4211.281948,4105.640925,2728.205061,4213.846051,4197.435795,4201.025538,4201.538359,4174.871693
50,0,4170.769129,4210.769128,4205.128102,4206.666564,4210.769128,4213.846051,4209.743487,4107.179387,2744.102497,4218.974256,4203.07682,4206.153743,4205.128102,4182.05118
51,0,4170.256308,4211.794769,4208.205025,4202.051179,4213.33323,4214.358871,4208.717846,4108.205028,2766.153779,4225.128102,4210.256307,4213.33323,4209.743487,4180.512718
52,0,4173.333231,4211.281948,4204.102461,4202.564,4215.897333,4215.897333,4209.743487,4107.179387,2789.230701,4225.640922,4206.153743,4207.179384,4210.256307,4177.435795
53,0,4167.692206,4209.230666,4203.589641,4205.128102,4217.948615,4215.384512,4213.846051,4108.205028,2802.564034,4221.538358,4197.435795,4202.051179,4207.692205,4172.30759
54,0,4164.615283,4203.589641,4205.640923,4201.025538,4217.435794,4216.410153,4214.358871,4114.358874,2819.487111,4223.58964,4202.564,4208.717846,4207.692205,4168.205026
55,0,4172.820411,4196.922974,4194.871692,4196.922974,4209.230666,4213.846051,4205.128102,4107.179387,2822.564034,4223.07682,4209.230666,4205.128102,4208.205025,4170.256308
56,0,4172.820411,4198.461436,4187.692205,4196.922974,4206.666564,4209.230666,4199.487077,4096.410156,2804.615316,4212.307589,4203.589641,4194.871692,4206.153743,4170.256308
57,0,4163.076821,4203.589641,4195.897333,4197.948615,4212.307589,4211.281948,4202.564,4094.871695,2798.46147,4207.692205,4194.358872,4195.384513,4201.538359,4166.666565
58,0,4161.53836,4203.07682,4202.051179,4199.487077,4214.358871,4215.897333,4207.179384,4099.9999,2807.692239,4224.615281,4195.897333,4198.974256,4198.974256,4163.589642
59,0,4162.564001,4205.128102,4206.153743,4202.564,4213.846051,4215.384512,4213.33323,4111.794771,2814.358906,4241.025537,4208.205025,4203.07682,4206.666564,4175.384513
60,0,4169.743488,4215.384512,4216.410153,4206.153743,4222.051179,4217.435794,4216.922974,4120.51272,2816.923008,4234.358871,4212.307589,4210.769128,4213.33323,4191.794769
61,0,4183.076821,4211.281948,4209.230666,4204.615282,4221.538358,4216.410153,4208.717846,4110.76913,2807.692239,4214.358871,4193.846051,4203.07682,4197.435795,4181.025539
62,0,4174.358872,4193.333231,4189.743487,4195.897333,4207.179384,4206.666564,4199.999897,4095.384515,2788.20506,4202.564,4175.384513,4185.640923,4176.922975,4158.461437
63,0,4151.28195,4187.692205,4191.281949,4193.333231,4202.051179,4207.179384,4203.07682,4095.897336,2789.230701,4196.922974,4178.461436,4179.999898,4176.410154,4151.28195
64,0,4152.307591,4192.30759,4199.487077,4198.974256,4210.256307,4215.897333,4208.205025,4101.538361,2798.974291,4191.281949,4182.564,4181.025539,4183.076821,4152.820411
65,0,4158.461437,4191.281949,4195.897333,4196.410154,4211.794769,4216.922974,4212.307589,4102.051182,2797.435829,4197.435795,4178.974257,4182.564,4183.589641,4154.358873
66,0,4152.307591,4189.230667,4196.410154,4191.794769,4210.256307,4213.846051,4212.82041,4105.640925,2808.20506,4204.615282,4186.153744,4188.205026,4188.205026,4166.153744
67,0,4159.487078,4197.948615,4201.538359,4198.461436,4217.948615,4215.897333,4212.82041,4108.205028,2831.281982,4200.512718,4198.974256,4191.794769,4196.410154,4178.974257
68,0,4170.256308,4205.640923,4201.538359,4205.640923,4223.58964,4216.922974,4210.769128,4103.589643,2838.97429,4200.512718,4195.384513,4198.461436,4196.922974,4178.974257
77,0,4145.128104,4194.358872,4186.666564,4199.487077,4202.564,4202.564,4197.948615,4098.461438,2907.179416,4188.717846,4169.230667,4171.281949,4175.897334,4157.948616
78,0,4153.846052,4198.461436,4194.358872,4205.640923,4206.666564,4202.564,4197.948615,4095.384515,2907.692237,4195.384513,4175.384513,4172.820411,4182.564,4158.974257
79,0,4173.333231,4208.205025,4204.615282,4203.589641,4212.307589,4209.743487,4204.102461,4114.358874,2931.28198,4197.435795,4193.333231,4188.205026,4194.871692,4167.692206
80,0,4184.615282,4212.82041,4206.666564,4201.025538,4213.846051,4213.33323,4205.128102,4122.564002,2946.666595,4203.589641,4197.948615,4193.333231,4195.897333,4175.897334
89,0,4175.897334,4209.230666,4207.692205,4214.358871,4210.769128,4213.33323,4205.640923,4111.794771,2942.05121,4213.846051,4193.846051,4189.230667,4201.025538,4175.384513
90,0,4189.230667,4213.33323,4207.692205,4215.897333,4219.999897,4211.281948,4213.846051,4124.615284,2946.153774,4229.743486,4199.999897,4193.333231,4204.615282,4191.794769
91,0,4196.922974,4216.922974,4219.999897,4216.922974,4225.128102,4216.922974,4217.948615,4129.743489,2952.820441,4224.615281,4211.794769,4210.256307,4214.871692,4202.051179
92,0,4191.794769,4218.974256,4223.07682,4214.358871,4217.948615,4216.922974,4215.384512,4116.922976,2941.53839,4206.666564,4210.769128,4210.256307,4209.743487,4199.487077
93,0,4193.846051,4218.461435,4215.384512,4209.743487,4214.358871,4214.871692,4213.846051,4111.794771,2941.025569,4206.666564,4202.564,4196.410154,4204.615282,4206.666564
94,0,4195.897333,4221.538358,4218.974256,4214.358871,4223.58964,4218.974256,4216.410153,4119.487079,2955.384543,4228.205025,4205.640923,4201.538359,4218.974256,4211.281948
95,0,4189.230667,4222.051179,4221.025538,4223.58964,4223.58964,4219.487076,4215.384512,4118.974258,2951.281979,4227.179384,4210.256307,4209.743487,4222.051179,4200.512718
96,0,4199.487077,4218.461435,4214.871692,4215.897333,4219.999897,4215.897333,4211.794769,4115.384515,2939.487108,4205.128102,4208.717846,4206.153743,4211.281948,4198.461436
105,0,4174.871693,4202.051179,4212.307589,4208.717846,4207.179384,4211.794769,4210.769128,4117.948617,2921.53839,4214.358871,4206.153743,4197.948615,4203.07682,4187.692205
106,0,4191.794769,4208.717846,4215.384512,4218.974256,4219.999897,4217.948615,4217.948615,4125.128104,2951.7948,4235.384512,4210.769128,4205.128102,4209.743487,4198.461436
107,0,4196.922974,4208.717846,4216.410153,4216.922974,4224.102461,4216.922974,4214.871692,4122.564002,2978.461466,4231.794768,4210.256307,4208.205025,4207.692205,4203.589641
108,0,4189.743487,4203.589641,4211.794769,4207.692205,4212.82041,4213.33323,4212.307589,4117.435797,3011.281978,4216.410153,4203.07682,4198.461436,4199.999897,4198.461436
109,0,4188.205026,4201.538359,4207.179384,4208.205025,4204.102461,4214.358871,4215.384512,4122.564002,3052.307618,4219.999897,4203.07682,4190.256308,4200.512718,4190.769128
110,0,4186.153744,4205.640923,4208.205025,4216.410153,4208.205025,4217.435794,4217.435794,4125.128104,3088.205053,4223.07682,4210.256307,4196.922974,4205.640923,4196.922974
111,0,4183.076821,4206.666564,4211.794769,4213.33323,4212.82041,4215.897333,4215.384512,4115.384515,3117.435821,4217.948615,4212.307589,4200.512718,4201.025538,4201.025538
120,0,4191.794769,4210.256307,4211.281948,4216.410153,4206.153743,4213.846051,4214.358871,4118.974258,3086.666591,4225.640922,4211.794769,4202.051179,4210.769128,4210.256307
121,0,4189.230667,4202.564,4203.07682,4214.871692,4203.07682,4209.743487,4209.230666,4113.846053,3052.820438,4193.846051,4207.179384,4194.358872,4198.461436,4207.179384
122,0,4185.640923,4198.461436,4204.615282,4212.307589,4203.07682,4208.205025,4204.102461,4109.743489,3018.974285,4189.743487,4207.179384,4192.30759,4193.846051,4198.974256
123,0,4193.846051,4206.153743,4212.82041,4213.33323,4201.538359,4212.82041,4206.153743,4106.666566,2998.974286,4193.333231,4202.564,4197.435795,4196.410154,4197.948615
124,0,4216.410153,4222.051179,4221.025538,4218.974256,4199.999897,4215.384512,4211.794769,4109.230669,2999.487106,4192.30759,4206.153743,4205.128102,4202.051179,4208.717846
125,0,4233.84605,4235.384512,4223.58964,4226.153743,4203.07682,4215.384512,4215.384512,4117.435797,3008.717875,4202.051179,4212.307589,4211.281948,4209.230666,4223.07682
126,0,4245.128101,4239.999896,4225.640922,4226.666563,4205.640923,4217.948615,4215.897333,4125.128104,3025.128131,4207.179384,4208.717846,4216.410153,4216.410153,4236.922973
127,0,4271.794767,4252.820409,4232.307589,4226.666563,4197.435795,4214.358871,4209.230666,4122.051181,3040.512746,4202.051179,4209.743487,4229.230666,4229.230666,4263.589639
128,0,4316.922971,4283.589639,4246.666563,4238.461435,4191.794769,4206.153743,4200.512718,4111.794771,3049.230695,4202.564,4223.07682,4247.692204,4249.743486,4305.1281
0,0,4370.256303,4310.769125,4258.974255,4249.230665,4190.769128,4206.153743,4197.948615,4107.692207,3063.589669,4197.948615,4229.230666,4254.35887,4258.974255,4336.41015
1,0,4425.640917,4325.64092,4262.563998,4251.281947,4191.281949,4211.281948,4197.435795,4104.615284,3083.076848,4190.256308,4223.07682,4258.461434,4256.922973,4361.025534
2,0,4461.538352,4346.15374,4268.717844,4260.512716,4199.487077,4213.33323,4196.410154,4093.333233,3092.307617,4188.205026,4224.102461,4268.717844,4264.61528,4383.076816
3,0,4478.974249,4370.769124,4280.512716,4278.974254,4211.281948,4215.384512,4198.974256,4093.846054,3099.999924,4188.717846,4236.410153,4274.87169,4278.461434,4402.051174
4,0,4504.102454,4377.948611,4287.179382,4283.076818,4211.794769,4217.435794,4201.025538,4109.743489,3117.948642,4195.384513,4242.563999,4273.846049,4282.563998,4422.051174
5,0,4521.538351,4376.410149,4291.281946,4277.435793,4206.153743,4220.512717,4205.640923,4116.410156,3123.076847,4207.692205,4244.10246,4281.538357,4283.589639,4428.71784
6,0,4511.794761,4370.769124,4293.846049,4277.435793,4207.692205,4225.640922,4216.410153,4121.538361,3114.871719,4212.307589,4256.922973,4299.487074,4291.281946,4425.640917
7,0,4499.99989,4359.999893,4289.743485,4271.281947,4210.769128,4223.07682,4216.922974,4129.230668,3111.281975,4214.871692,4269.743485,4304.615279,4295.897331,4432.820404
8,0,4486.153736,4347.692201,4282.563998,4264.10246,4208.717846,4216.922974,4205.128102,4130.76913,3110.256334,4226.666563,4265.640921,4292.307587,4289.230664,4426.153738
9,0,4446.153737,4331.794766,4268.717844,4262.051178,4205.128102,4214.871692,4198.974256,4130.76913,3111.794796,4229.230666,4257.435793,4271.794767,4277.435793,4387.6922
10,0,4401.538354,4312.820407,4247.179383,4253.333229,4203.589641,4214.358871,4201.538359,4128.205027,3109.743514,4217.435794,4251.281947,4254.35887,4267.179383,4358.974252
11,0,4379.999893,4299.487074,4243.58964,4245.128101,4205.128102,4213.846051,4203.07682,4117.948617,3095.89736,4210.256307,4244.615281,4252.820409,4262.563998,4351.794765
12,0,4368.205021,4291.794767,4253.84605,4249.743486,4206.153743,4215.897333,4207.179384,4117.435797,3094.871719,4213.846051,4246.153742,4262.051178,4261.538357,4335.384509
13,0,4352.307586,4277.435793,4255.384511,4250.769127,4208.717846,4218.461435,4208.205025,4118.974258,3110.769155,4222.563999,4241.538358,4257.948614,4255.384511,4311.794766
14,0,4327.692202,4259.487075,4247.692204,4244.615281,4210.256307,4215.897333,4203.07682,4106.153746,3111.794796,4212.82041,4223.58964,4236.410153,4242.563999,4288.205023
15,0,4307.179382,4250.256306,4246.153742,4243.076819,4207.179384,4213.846051,4204.615282,4099.487079,3106.666591,4193.846051,4221.025538,4228.717845,4234.871691,4272.820408
16,0,4294.358869,4252.820409,4251.281947,4246.666563,4212.82041,4221.025538,4216.922974,4114.871694,3117.948642,4198.974256,4235.897332,4235.897332,4237.948614,4268.205024
17,0,4282.051177,4255.897332,4250.769127,4248.205024,4223.58964,4229.743486,4228.717845,4135.384514,3141.025564,4216.410153,4238.974255,4234.358871,4241.025537,4260.512716
18,0,4270.256306,4246.666563,4237.435794,4239.999896,4224.615281,4225.128102,4230.256307,4151.28195,3170.769153,4223.58964,4236.410153,4222.051179,4242.563999,4251.281947
19,0,4256.922973,4236.922973,4225.128102,4229.230666,4219.999897,4217.435794,4230.256307,4161.53836,3203.589665,4227.692204,4243.076819,4219.999897,4241.538358,4242.051178
20,0,4247.692204,4235.897332,4229.230666,4230.769127,4225.128102,4219.999897,4230.256307,4164.615283,3224.102485,4243.076819,4244.615281,4232.820409,4239.999896,4236.922973
21,0,4237.948614,4232.307589,4237.435794,4233.84605,4227.692204,4219.999897,4223.58964,4156.922975,3224.102485,4252.307588,4238.974255,4236.410153,4242.051178,4235.897332
22,0,4223.07682,4226.153743,4234.871691,4229.743486,4215.897333,4215.897333,4214.871692,4146.666565,3222.051203,4238.974255,4233.84605,4223.58964,4239.999896,4231.281948
23,0,4211.794769,4224.102461,4230.769127,4228.717845,4209.743487,4214.358871,4211.794769,4136.922976,3218.46146,4221.025538,4229.743486,4213.846051,4232.820409,4227.692204
24,0,4227.692204,4228.717845,4234.358871,4232.307589,4217.948615,4215.897333,4215.384512,4134.358873,3216.922998,4222.051179,4230.769127,4216.410153,4233.84605,4226.666563
25,0,4239.487076,4231.281948,4231.794768,4231.281948,4222.563999,4223.58964,4223.58964,4136.410155,3228.71787,4227.179384,4234.358871,4212.307589,4236.922973,4213.33323
26,0,4214.871692,4226.153743,4222.563999,4229.743486,4222.051179,4230.769127,4230.769127,4129.230668,3236.922998,4222.563999,4227.692204,4200.512718,4229.743486,4199.487077
27,0,4198.974256,4222.051179,4224.615281,4232.307589,4224.615281,4230.256307,4229.743486,4120.51272,3236.922998,4215.897333,4216.410153,4199.487077,4222.051179,4202.564
28,0,4208.205025,4223.58964,4233.33323,4234.358871,4229.743486,4231.281948,4229.743486,4127.179386,3246.666587,4203.589641,4219.999897,4210.769128,4224.102461,4212.307589
29,0,4207.692205,4223.07682,4237.948614,4233.84605,4234.871691,4233.33323,4234.358871,4142.564001,3267.692228,4203.589641,4235.384512,4222.051179,4233.33323,4218.974256
30,0,4194.871692,4220.512717,4236.922973,4232.307589,4232.307589,4230.769127,4231.794768,4146.666565,3281.538381,4226.666563,4243.076819,4231.794768,4239.999896,4213.846051
31,0,4195.384513,4222.563999,4231.281948,4230.256307,4227.179384,4228.717845,4227.692204,4151.28195,3299.999919,4244.10246,4244.10246,4232.820409,4243.076819,4211.281948
32,0,4195.897333,4216.410153,4226.153743,4230.256307,4227.179384,4228.717845,4231.281948,4166.666565,3339.487098,4252.820409,4244.615281,4224.615281,4245.640922,4216.410153
33,0,4187.692205,4208.717846,4222.563999,4229.230666,4226.666563,4228.717845,4233.33323,4168.717847,3357.948636,4256.410152,4241.538358,4222.051179,4242.051178,4206.153743
34,0,4188.717846,4209.743487,4212.307589,4226.666563,4224.102461,4226.153743,4229.230666,4155.384514,3342.564021,4239.999896,4232.820409,4213.846051,4229.230666,4192.30759
35,0,4192.82041,4211.794769,4204.102461,4231.281948,4227.692204,4223.58964,4229.743486,4151.28195,3329.230688,4222.051179,4222.563999,4194.871692,4223.58964,4195.897333
36,0,4185.640923,4206.666564,4206.153743,4230.769127,4231.281948,4221.538358,4232.820409,4152.820411,3327.179406,4216.410153,4216.922974,4186.153744,4226.666563,4189.743487
37,0,4175.384513,4204.615282,4208.717846,4216.922974,4227.692204,4219.999897,4229.230666,4139.999899,3308.205047,4205.128102,4214.358871,4192.30759,4219.999897,4175.384513
38,0,4173.846052,4204.615282,4211.281948,4217.948615,4223.07682,4221.538358,4228.205025,4130.76913,3287.692227,4200.512718,4215.897333,4202.051179,4215.384512,4182.564
39,0,4184.102462,4205.128102,4220.512717,4231.281948,4222.051179,4221.025538,4228.717845,4141.53836,3299.999919,4215.897333,4227.692204,4217.435794,4227.692204,4199.487077
48,0,4175.897334,4204.102461,4217.435794,4225.128102,4224.102461,4218.461435,4214.871692,4126.666566,3318.974278,4200.512718,4223.58964,4203.07682,4220.512717,4171.79477
49,0,4161.53836,4200.512718,4212.82041,4218.461435,4221.025538,4216.922974,4215.897333,4115.897335,3298.974278,4184.102462,4215.897333,4198.974256,4213.846051,4181.025539
50,0,4174.871693,4206.666564,4220.512717,4215.897333,4224.615281,4224.102461,4219.487076,4121.02554,3306.153765,4191.794769,4219.999897,4202.564,4216.410153,4187.179385
59,0,4152.307591,4190.256308,4203.07682,4215.897333,4214.871692,4214.358871,4217.948615,4129.743489,3207.692229,4197.948615,4208.205025,4192.82041,4206.153743,4171.281949
60,0,4150.769129,4186.666564,4205.128102,4212.82041,4214.358871,4208.717846,4217.435794,4129.743489,3199.999922,4199.487077,4208.717846,4192.82041,4207.692205,4183.589641
61,0,4159.487078,4180.512718,4204.102461,4213.33323,4218.461435,4211.794769,4218.461435,4138.974258,3194.871717,4201.538359,4213.846051,4191.281949,4208.205025,4188.717846
62,0,4157.435796,4178.974257,4203.07682,4218.461435,4217.435794,4218.461435,4220.512717,4145.640924,3184.102486,4202.564,4224.615281,4195.897333,4210.769128,4178.461436
63,0,4155.384514,4184.102462,4210.256307,4220.512717,4213.33323,4216.922974,4218.974256,4140.512719,3165.640948,4207.692205,4225.128102,4197.948615,4212.82041,4184.102462
64,0,4175.384513,4193.846051,4217.948615,4221.025538,4218.461435,4216.410153,4219.999897,4142.564001,3153.333256,4223.07682,4225.128102,4201.025538,4214.358871,4203.07682
65,0,4176.922975,4192.82041,4216.410153,4221.025538,4222.051179,4217.948615,4221.025538,4146.153745,3148.205051,4221.538358,4226.153743,4206.666564,4211.794769,4196.410154
66,0,4145.640924,4183.076821,4215.897333,4213.33323,4212.82041,4215.384512,4216.410153,4133.333232,3137.435821,4199.487077,4211.281948,4205.128102,4203.07682,4175.384513
67,0,4153.846052,4188.205026,4226.666563,4214.871692,4212.307589,4216.410153,4216.922974,4127.179386,3139.999923,4203.589641,4209.743487,4205.128102,4203.589641,4176.922975
68,0,4195.897333,4200.512718,4232.307589,4230.256307,4224.615281,4219.487076,4224.615281,4141.53836,3164.615307,4221.025538,4229.743486,4210.769128,4213.846051,4195.384513
69,0,4191.794769,4195.897333,4221.538358,4228.205025,4227.179384,4216.922974,4222.051179,4144.102463,3189.230691,4216.410153,4229.230666,4207.692205,4212.307589,4195.897333
70,0,4161.025539,4186.153744,4215.384512,4213.33323,4218.461435,4213.846051,4214.871692,4132.820412,3219.999921,4206.153743,4219.487076,4201.025538,4204.102461,4183.076821
71,0,4168.205026,4193.846051,4224.102461,4219.487076,4218.461435,4216.410153,4217.948615,4140.512719,3282.051202,4221.538358,4232.820409,4207.692205,4210.769128,4190.769128
72,0,4182.05118,4204.615282,4229.743486,4231.794768,4225.640922,4218.974256,4223.58964,4156.922975,3361.538379,4237.948614,4238.974255,4215.897333,4222.563999,4198.461436
73,0,4177.435795,4204.102461,4223.07682,4225.640922,4225.128102,4217.948615,4218.974256,4152.820411,3427.692224,4228.717845,4225.640922,4212.307589,4221.538358,4188.717846
74,0,4176.410154,4202.564,4223.58964,4221.538358,4224.102461,4217.435794,4218.461435,4142.051181,3490.256325,4222.563999,4227.179384,4211.281948,4222.563999,4190.256308
75,0,4179.999898,4207.692205,4234.871691,4233.84605,4230.256307,4220.512717,4223.58964,4152.820411,3568.205041,4237.435794,4243.58964,4217.948615,4234.358871,4202.051179
76,0,4180.512718,4209.743487,4233.33323,4240.512717,4230.769127,4219.487076,4223.07682,4162.564001,3647.179398,4231.281948,4244.10246,4218.461435,4238.461435,4194.358872
77,0,4187.692205,4208.205025,4223.58964,4235.384512,4230.769127,4216.922974,4223.58964,4157.435796,3721.02555,4212.307589,4234.358871,4215.384512,4233.84605,4192.30759
78,0,4189.743487,4211.794769,4227.179384,4230.769127,4240.512717,4223.07682,4228.205025,4158.974257,3793.846061,4221.538358,4232.820409,4214.871692,4231.794768,4209.230666
79,0,4176.922975,4216.410153,4235.384512,4231.794768,4241.025537,4228.205025,4230.256307,4164.615283,3853.333239,4229.743486,4233.84605,4213.33323,4231.794768,4210.769128
80,0,4172.820411,4207.692205,4229.743486,4232.820409,4228.717845,4222.563999,4226.666563,4158.974257,3889.230674,4210.769128,4221.538358,4205.640923,4221.025538,4192.30759
81,0,4182.05118,4193.846051,4216.922974,4225.640922,4221.538358,4214.871692,4220.512717,4147.179386,3896.922982,4198.461436,4208.717846,4192.82041,4208.205025,4180.512718
82,0,4180.512718,4196.410154,4215.384512,4219.999897,4222.051179,4214.871692,4217.435794,4142.564001,3883.076828,4199.999897,4211.281948,4188.717846,4208.205025,4180.512718
83,0,4169.743488,4207.179384,4228.205025,4224.102461,4222.563999,4216.922974,4217.948615,4146.666565,3858.461444,4198.974256,4222.563999,4200.512718,4212.307589,4182.564
84,0,4172.30759,4207.179384,4234.358871,4231.281948,4224.102461,4217.435794,4223.07682,4150.769129,3817.948625,4194.871692,4223.58964,4207.179384,4214.871692,4187.692205
85,0,4187.179385,4203.589641,4228.717845,4232.307589,4225.128102,4217.435794,4224.102461,4145.640924,3757.948626,4196.922974,4214.871692,4199.487077,4219.487076,4199.487077
86,0,4197.948615,4207.179384,4228.205025,4229.230666,4228.717845,4218.974256,4221.025538,4145.128104,3705.128115,4218.974256,4213.846051,4203.589641,4223.07682,4204.615282
87,0,4193.333231,4208.205025,4232.307589,4228.205025,4229.230666,4219.999897,4221.538358,4157.435796,3663.076834,4227.692204,4219.487076,4214.871692,4216.410153,4195.384513
88,0,4181.538359,4205.640923,4224.615281,4230.769127,4220.512717,4217.948615,4222.051179,4162.05118,3607.692219,4211.794769,4219.487076,4209.230666,4209.230666,4188.205026
89,0,4184.102462,4206.153743,4214.871692,4231.281948,4216.922974,4216.922974,4216.410153,4153.846052,3537.948631,4211.794769,4219.999897,4198.461436,4213.33323,4195.384513
90,0,4193.846051,4207.692205,4221.538358,4231.281948,4223.07682,4217.948615,4213.33323,4151.79477,3475.897351,4223.58964,4225.640922,4201.025538,4221.538358,4205.640923
91,0,4184.615282,4204.615282,4226.666563,4231.281948,4226.153743,4216.922974,4215.384512,4149.230668,3415.897352,4212.307589,4221.025538,4204.102461,4215.384512,4196.410154
92,0,4173.846052,4196.922974,4219.999897,4228.205025,4223.58964,4215.384512,4214.358871,4136.922976,3334.358893,4197.435795,4210.256307,4197.435795,4205.128102,4181.025539
93,0,4177.948616,4192.82041,4217.948615,4225.640922,4219.999897,4215.384512,4214.358871,4134.871694,3250.256331,4207.692205,4210.769128,4193.846051,4203.589641,4184.102462
94,0,4178.974257,4195.384513,4221.025538,4229.743486,4220.512717,4215.897333,4220.512717,4145.640924,3184.102486,4217.435794,4217.948615,4199.999897,4205.640923,4193.846051
95,0,4179.999898,4196.922974,4217.435794,4231.794768,4221.538358,4215.897333,4221.025538,4146.153745,3116.41018,4208.717846,4222.051179,4202.051179,4207.179384,4194.358872
96,0,4190.256308,4199.999897,4218.974256,4231.281948,4223.07682,4215.897333,4217.435794,4143.076822,3039.999926,4207.692205,4227.179384,4200.512718,4214.358871,4198.974256
97,0,4191.281949,4204.615282,4226.153743,4232.820409,4224.102461,4217.435794,4217.948615,4145.640924,2976.923004,4217.435794,4227.179384,4203.589641,4217.435794,4212.307589
98,0,4185.128103,4200.512718,4228.717845,4232.820409,4224.615281,4219.999897,4219.487076,4145.128104,2929.230698,4211.281948,4220.512717,4208.205025,4204.615282,4213.33323
99,0,4185.640923,4192.30759,4225.640922,4230.256307,4221.538358,4218.974256,4216.410153,4136.410155,2894.871724,4192.82041,4213.33323,4203.589641,4191.794769,4202.564
100,0,4185.640923,4193.333231,4221.538358,4230.769127,4219.487076,4216.922974,4213.33323,4133.846053,2887.179417,4191.281949,4211.794769,4193.333231,4193.333231,4192.30759
101,0,4182.05118,4196.922974,4223.58964,4232.307589,4224.615281,4218.461435,4219.487076,4144.102463,2905.640955,4205.640923,4221.025538,4197.948615,4204.615282,4194.871692
102,0,4187.179385,4198.974256,4233.84605,4232.820409,4228.717845,4221.025538,4227.179384,4152.820411,2934.871723,4220.512717,4228.717845,4212.307589,4211.281948,4208.205025
103,0,4189.230667,4197.948615,4234.871691,4232.820409,4224.102461,4220.512717,4226.153743,4146.153745,2957.435825,4224.102461,4223.07682,4212.82041,4208.205025,4207.179384
104,0,4183.076821,4193.333231,4230.769127,4230.769127,4218.461435,4217.948615,4223.58964,4146.153745,2982.051209,4222.563999,4222.563999,4206.153743,4210.256307,4193.846051
105,0,4187.179385,4198.461436,4234.871691,4230.256307,4223.07682,4215.897333,4225.640922,4160.512719,3016.410183,4228.717845,4238.461435,4213.33323,4221.025538,4203.589641
106,0,4197.435795,4203.589641,4232.820409,4233.33323,4222.563999,4216.410153,4222.563999,4156.410155,3028.717875,4224.615281,4242.563999,4216.410153,4220.512717,4218.974256
107,0,4194.358872,4196.922974,4217.948615,4230.769127,4210.769128,4215.384512,4214.358871,4142.564001,3022.564029,4211.794769,4224.102461,4205.128102,4202.564,4197.435795
108,0,4178.974257,4188.717846,4211.794769,4225.128102,4206.153743,4211.794769,4212.307589,4136.922976,3018.974285,4205.640923,4209.230666,4196.410154,4192.30759,4170.256308
109,0,4176.410154,4191.794769,4216.922974,4228.717845,4211.281948,4213.846051,4212.82041,4132.307591,3012.307619,4191.794769,4212.82041,4192.82041,4194.871692,4182.05118
110,0,4176.922975,4194.358872,4219.487076,4229.230666,4214.358871,4213.33323,4207.692205,4124.102463,3003.58967,4176.922975,4211.794769,4184.102462,4193.333231,4191.794769
111,0,4172.30759,4190.256308,4216.922974,4218.461435,4210.769128,4206.666564,4201.538359,4117.435797,3013.33326,4183.076821,4202.051179,4179.999898,4194.871692,4178.974257
112,0,4181.025539,4188.205026,4216.410153,4222.563999,4207.692205,4205.640923,4205.128102,4118.974258,3042.564028,4191.794769,4211.794769,4189.743487,4205.640923,4179.999898
113,0,4192.82041,4193.846051,4219.487076,4233.84605,4211.794769,4214.358871,4214.871692,4134.358873,3077.435822,4202.051179,4231.794768,4199.999897,4214.871692,4191.281949
114,0,4190.256308,4196.410154,4215.897333,4226.153743,4213.33323,4213.846051,4214.871692,4143.076822,3106.666591,4210.256307,4230.256307,4196.922974,4216.410153,4192.30759
115,0,4185.640923,4192.82041,4214.871692,4214.358871,4208.205025,4205.640923,4210.769128,4135.897335,3125.128129,4202.051179,4222.051179,4190.769128,4213.33323,4193.846051
116,0,4186.153744,4194.871692,4222.563999,4222.563999,4208.205025,4207.692205,4214.871692,4142.051181,3143.076846,4196.922974,4225.640922,4198.974256,4211.794769,4195.897333
117,0,4188.205026,4199.487077,4223.07682,4232.820409,4216.410153,4213.33323,4216.922974,4149.230668,3150.256333,4195.897333,4223.07682,4205.640923,4211.794769,4195.384513
118,0,4188.205026,4197.948615,4217.435794,4231.281948,4221.538358,4212.307589,4211.281948,4134.358873,3135.897359,4191.281949,4210.256307,4197.948615,4209.743487,4196.922974
119,0,4185.128103,4202.051179,4219.487076,4228.205025,4222.563999,4212.82041,4211.281948,4126.666566,3119.999924,4200.512718,4211.281948,4194.358872,4208.205025,4194.358872
120,0,4187.179385,4208.717846,4218.974256,4230.256307,4226.153743,4218.461435,4217.948615,4137.948617,3098.461463,4208.717846,4221.538358,4191.794769,4212.82041,4196.410154
121,0,4194.871692,4200.512718,4214.358871,4229.743486,4223.07682,4216.922974,4216.922974,4145.640924,3055.384541,4194.358872,4225.128102,4175.897334,4211.794769,4211.794769
122,0,4187.179385,4188.205026,4215.384512,4220.512717,4213.33323,4211.794769,4216.922974,4155.897334,3012.307619,4199.487077,4226.153743,4172.820411,4212.307589,4215.897333
123,0,4185.128103,4192.82041,4217.948615,4219.487076,4214.358871,4215.897333,4224.102461,4167.179385,2970.769158,4230.256307,4233.33323,4193.333231,4225.640922,4211.794769
124,0,4205.640923,4206.666564,4214.358871,4229.230666,4221.025538,4218.461435,4223.07682,4158.461437,2889.230699,4229.230666,4227.692204,4192.82041,4225.128102,4218.461435
125,0,4211.794769,4209.230666,4214.871692,4232.820409,4219.487076,4214.358871,4214.358871,4139.999899,2781.538394,4203.07682,4210.769128,4174.358872,4202.564,4214.358871
126,0,4197.435795,4206.666564,4222.563999,4228.205025,4216.410153,4212.82041,4214.358871,4142.564001,2715.897369,4201.538359,4212.82041,4177.435795,4195.384513,4204.102461
127,0,4186.153744,4208.205025,4227.692204,4227.692204,4215.897333,4215.384512,4218.461435,4149.230668,2683.589678,4210.769128,4223.07682,4187.179385,4205.128102,4209.230666
128,0,4189.230667,4210.256307,4230.256307,4231.281948,4217.948615,4215.384512,4215.897333,4142.051181,2645.12814,4207.179384,4224.102461,4183.589641,4205.640923,4217.435794
0,0,4196.410154,4207.179384,4224.615281,4233.84605,4222.051179,4214.871692,4214.358871,4136.922976,2622.564038,4203.589641,4224.102461,4177.435795,4199.487077,4209.230666
1,0,4197.435795,4206.153743,4219.487076,4233.33323,4224.102461,4215.897333,4214.358871,4143.076822,2637.948653,4209.743487,4223.07682,4174.871693,4199.999897,4196.410154
2,0,4197.435795,4212.82041,4223.07682,4233.33323,4223.07682,4217.435794,4214.358871,4145.640924,2668.205063,4209.230666,4219.487076,4177.948616,4202.564,4197.948615
3,0,4204.102461,4217.948615,4228.717845,4235.384512,4222.563999,4216.922974,4214.358871,4139.487078,2688.717883,4210.256307,4222.051179,4184.102462,4206.153743,4210.769128
4,0,4196.922974,4212.307589,4223.07682,4233.84605,4216.922974,4213.846051,4215.384512,4136.410155,2717.948651,4215.384512,4219.487076,4178.974257,4202.564,4209.230666
5,0,4186.153744,4203.589641,4217.435794,4227.179384,4211.794769,4212.307589,4214.871692,4137.435796,2763.076856,4210.769128,4213.846051,4170.769129,4194.871692,4192.82041
6,0,4199.487077,4207.179384,4221.538358,4228.205025,4212.82041,4214.871692,4214.358871,4136.410155,2805.128137,4208.717846,4219.999897,4171.79477,4200.512718,4191.794769
7,0,4207.692205,4211.794769,4224.615281,4235.384512,4213.846051,4213.846051,4214.358871,4136.410155,2837.435828,4216.922974,4224.102461,4176.922975,4211.281948,4199.487077
8,0,4187.179385,4200.512718,4219.999897,4229.230666,4213.846051,4207.692205,4208.205025,4134.871694,2850.769161,4209.230666,4215.384512,4180.512718,4205.640923,4194.871692
9,0,4174.871693,4191.794769,4215.897333,4218.974256,4210.769128,4205.640923,4203.07682,4128.205027,2848.717879,4191.281949,4206.666564,4180.512718,4192.82041,4194.358872
10,0,4192.82041,4202.051179,4223.07682,4227.179384,4207.692205,4212.307589,4210.256307,4134.358873,2860.512751,4191.281949,4208.717846,4179.999898,4197.435795,4204.615282
11,0,4200.512718,4212.307589,4229.743486,4234.871691,4209.230666,4217.435794,4219.487076,4146.666565,2874.871725,4203.07682,4214.871692,4179.487077,4204.615282,4211.794769
12,0,4191.794769,4208.717846,4222.051179,4230.769127,4208.205025,4213.846051,4216.922974,4142.564001,2860.512751,4206.153743,4214.358871,4171.79477,4196.922974,4205.640923
13,0,4194.358872,4199.999897,4212.82041,4229.743486,4204.102461,4211.281948,4214.871692,4137.948617,2851.281982,4206.666564,4212.307589,4166.153744,4191.794769,4201.025538
14,0,4190.256308,4195.897333,4213.846051,4225.640922,4204.102461,4214.358871,4217.435794,4146.666565,2865.128135,4207.692205,4221.538358,4171.281949,4197.435795,4202.564
15,0,4179.999898,4196.410154,4215.384512,4215.384512,4204.615282,4214.358871,4214.871692,4142.051181,2862.564033,4207.179384,4247.692204,4176.922975,4200.512718,4199.999897
16,0,4195.384513,4202.564,4213.846051,4223.58964,4209.743487,4210.256307,4212.82041,4131.28195,2848.205059,4212.82041,4242.051178,4182.564,4201.025538,4205.128102
17,0,4207.179384,4205.640923,4219.999897,4233.84605,4215.897333,4211.794769,4214.358871,4133.333232,2854.871725,4209.230666,4210.256307,4184.102462,4201.538359,4218.461435
18,0,4191.281949,4207.179384,4221.025538,4223.07682,4211.281948,4215.897333,4213.33323,4135.384514,2878.461468,4199.999897,4267.692203,4177.948616,4197.948615,4219.999897
19,0,4186.153744,4209.230666,4213.33323,4218.461435,4209.230666,4213.846051,4212.307589,4134.871694,2906.666596,4208.717846,4190.256308,4175.897334,4194.358872,4208.205025
20,0,4200.512718,4210.256307,4214.871692,4228.717845,4217.948615,4211.281948,4214.871692,4137.435796,2933.846082,4217.435794,3797.948625,4179.999898,4193.846051,4202.564
21,0,4205.128102,4210.769128,4223.58964,4232.820409,4218.974256,4213.846051,4214.871692,4131.28195,2957.435825,4206.153743,3521.538375,4175.897334,4193.333231,4208.205025
22,0,4205.640923,4211.281948,4222.051179,4227.179384,4215.384512,4214.358871,4208.717846,4123.076822,2982.56403,4200.512718,3604.102476,4171.79477,4193.846051,4212.82041
23,0,4199.487077,4207.179384,4211.794769,4227.179384,4211.794769,4212.82041,4209.743487,4123.076822,3012.820439,4206.153743,3690.25632,4176.410154,4191.794769,4200.512718
24,0,4194.358872,4210.256307,4215.897333,4231.794768,4214.871692,4215.384512,4215.897333,4128.205027,3041.025567,4206.153743,3666.153757,4181.538359,4192.30759,4191.794769
25,0,4212.307589,4223.58964,4230.769127,4233.33323,4224.615281,4219.487076,4219.487076,4136.410155,3078.974284,4204.615282,3712.820422,4181.025539,4197.435795,4212.82041
26,0,4228.205025,4224.102461,4231.281948,4231.281948,4224.615281,4216.922974,4219.999897,4147.179386,3135.384539,4209.743487,3767.179395,4184.615282,4198.461436,4223.58964
27,0,4216.922974,4214.358871,4222.051179,4230.769127,4217.435794,4216.922974,4219.999897,4155.384514,3180.512743,4218.974256,3776.410164,4194.358872,4200.512718,4211.794769
28,0,4210.769128,4219.487076,4229.230666,4235.897332,4222.051179,4226.666563,4224.102461,4159.487078,3199.999922,4234.358871,3807.179394,4206.153743,4211.281948,4218.974256
29,0,4211.281948,4225.128102,4241.025537,4235.897332,4228.205025,4229.743486,4226.666563,4161.025539,3219.999921,4243.076819,3844.615291,4207.692205,4216.922974,4224.615281
30,0,4199.487077,4212.82041,4235.897332,4230.256307,4218.974256,4219.999897,4221.538358,4151.79477,3234.358895,4229.230666,3866.666572,4202.051179,4209.230666,4209.230666
31,0,4207.179384,4209.743487,4229.230666,4228.717845,4216.410153,4215.384512,4216.410153,4138.461437,3232.307613,4212.307589,3904.615289,4199.487077,4204.102461,4206.666564
32,0,4222.563999,4221.538358,4231.281948,4229.230666,4225.128102,4217.435794,4215.384512,4133.846053,3234.358895,4212.82041,4051.281952,4201.025538,4208.205025,4216.410153
33,0,4213.846051,4221.538358,4230.256307,4228.717845,4224.102461,4216.410153,4214.358871,4132.820412,3243.076844,4219.999897,4235.384512,4197.948615,4211.794769,4214.358871
34,0,4207.179384,4212.82041,4221.538358,4226.153743,4210.256307,4213.846051,4214.871692,4129.743489,3240.512741,4222.563999,4292.307587,4196.922974,4208.205025,4214.871692
35,0,4210.769128,4209.230666,4218.461435,4219.999897,4206.666564,4213.846051,4217.435794,4134.358873,3239.999921,4221.538358,4269.743485,4202.051179,4207.692205,4222.563999
36,0,4197.435795,4208.205025,4225.640922,4216.922974,4217.435794,4214.358871,4217.435794,4145.128104,3256.922997,4218.461435,4285.1281,4199.487077,4209.230666,4214.871692
37,0,4194.358872,4211.794769,4224.615281,4219.487076,4217.435794,4215.384512,4216.410153,4148.205027,3267.692228,4219.999897,4302.563997,4193.333231,4209.743487,4205.640923
38,0,4212.82041,4212.82041,4214.871692,4219.999897,4208.205025,4214.871692,4216.410153,4142.051181,3263.076843,4221.538358,4283.589639,4189.230667,4205.640923,4206.153743
39,0,4217.435794,4207.692205,4213.33323,4216.922974,4209.743487,4214.871692,4215.384512,4133.846053,3259.99992,4208.717846,4272.820408,4187.179385,4198.974256,4202.051179
40,0,4209.743487,4209.743487,4217.435794,4219.487076,4217.435794,4215.384512,4215.384512,4129.743489,3267.692228,4201.025538,4281.025536,4190.769128,4200.512718,4197.435795
41,0,4208.205025,4215.897333,4225.640922,4223.58964,4221.025538,4215.897333,4217.948615,4135.897335,3279.487099,4222.563999,4289.743485,4198.974256,4208.717846,4208.205025
42,0,4210.769128,4214.871692,4237.435794,4224.615281,4218.461435,4217.435794,4219.999897,4142.051181,3284.615304,4230.769127,4292.820408,4208.717846,4210.769128,4215.384512
43,0,4210.256307,4213.33323,4241.025537,4224.102461,4213.33323,4217.435794,4219.487076,4138.461437,3285.640945,4211.794769,4290.769126,4213.33323,4208.205025,4215.897333
44,0,4197.948615,4209.230666,4231.281948,4220.512717,4209.743487,4215.384512,4218.974256,4131.794771,3284.102484,4207.179384,4288.205023,4204.102461,4204.615282,4222.563999
45,0,4188.717846,4199.487077,4222.563999,4216.922974,4209.743487,4215.384512,4218.461435,4132.307591,3277.948638,4209.743487,4284.102459,4191.794769,4195.897333,4210.769128
46,0,4195.897333,4197.948615,4217.948615,4216.922974,4213.33323,4216.922974,4215.897333,4135.384514,3279.99992,4198.974256,4278.461434,4188.717846,4190.769128,4188.205026
47,0,4199.999897,4202.564,4213.33323,4216.410153,4214.358871,4215.897333,4215.897333,4133.846053,3289.743509,4196.410154,4277.435793,4185.640923,4194.871692,4198.461436
48,0,4195.384513,4207.179384,4216.410153,4215.384512,4212.82041,4215.897333,4223.58964,4140.512719,3301.02556,4214.871692,4284.61528,4186.666564,4199.487077,4223.58964
49,0,4193.846051,4211.794769,4228.205025,4217.435794,4217.435794,4218.461435,4233.33323,4156.922975,3322.051201,4220.512717,4289.230664,4196.922974,4205.640923,4222.051179
50,0,4190.769128,4212.307589,4233.84605,4222.563999,4227.692204,4218.461435,4230.769127,4157.948616,3349.743508,4213.846051,4288.205023,4200.512718,4210.256307,4213.846051
51,0,4188.717846,4207.692205,4227.692204,4219.999897,4225.128102,4217.435794,4219.487076,4141.53836,3361.025559,4212.307589,4282.563998,4193.333231,4206.666564,4213.33323
52,0,4195.897333,4205.640923,4228.205025,4212.307589,4218.461435,4218.461435,4216.410153,4135.897335,3358.461456,4208.717846,4274.35887,4190.256308,4202.051179,4206.666564
53,0,4207.692205,4208.717846,4234.358871,4216.410153,4222.563999,4218.974256,4219.999897,4134.358873,3351.79479,4197.948615,4271.794767,4194.871692,4200.512718,4207.692205
54,0,4212.307589,4211.281948,4229.743486,4230.256307,4224.615281,4218.461435,4217.435794,4126.153745,3337.435816,4197.435795,4278.974254,4201.538359,4200.512718,4217.435794
55,0,4210.769128,4214.358871,4227.692204,4233.84605,4218.974256,4218.461435,4214.871692,4128.717848,3322.564021,4208.717846,4284.61528,4204.102461,4205.640923,4221.538358
56,0,4210.769128,4219.999897,4237.948614,4226.153743,4223.07682,4218.461435,4221.538358,4142.564001,3302.564022,4213.33323,4287.179382,4203.589641,4212.307589,4226.153743
57,0,4211.794769,4217.948615,4235.384512,4217.948615,4228.205025,4217.948615,4231.281948,4152.820411,3270.25633,4207.692205,4284.102459,4199.999897,4206.666564,4223.07682
58,0,4207.692205,4210.769128,4220.512717,4212.307589,4223.07682,4222.051179,4233.33323,4152.307591,3228.71787,4205.128102,4273.333229,4193.333231,4195.897333,4206.153743
59,0,4193.846051,4207.692205,4219.999897,4215.384512,4217.948615,4223.07682,4227.179384,4141.53836,3183.076845,4206.666564,4268.205024,4186.666564,4190.769128,4199.999897
60,0,4191.794769,4211.794769,4230.256307,4223.58964,4225.128102,4217.948615,4223.07682,4136.922976,3152.820436,4207.179384,4276.410152,4191.794769,4197.435795,4210.769128
61,0,4209.230666,4218.461435,4230.256307,4223.07682,4228.205025,4215.897333,4221.538358,4141.53836,3148.205051,4204.102461,4281.025536,4197.948615,4208.717846,4217.948615
62,0,4225.640922,4224.102461,4228.205025,4218.974256,4219.487076,4216.922974,4218.974256,4134.871694,3156.410179,4204.102461,4281.538357,4196.922974,4212.82041,4221.538358
63,0,4228.205025,4227.692204,4234.358871,4224.615281,4215.384512,4215.384512,4214.358871,4124.102463,3178.974281,4206.666564,4282.051177,4200.512718,4212.82041,4221.025538
64,0,4223.07682,4227.692204,4237.948614,4228.205025,4217.948615,4214.871692,4213.846051,4127.179386,3230.256331,4199.999897,4281.025536,4209.230666,4212.307589,4212.307589
65,0,4212.82041,4225.128102,4234.358871,4223.07682,4215.897333,4217.948615,4223.07682,4137.948617,3297.435817,4206.153743,4282.563998,4207.179384,4211.794769,4212.82041
66,0,4201.538359,4219.999897,4231.794768,4215.897333,4212.307589,4220.512717,4229.743486,4146.153745,3371.281969,4223.58964,4285.640921,4199.487077,4208.717846,4213.33323
67,0,4204.615282,4219.999897,4232.307589,4215.897333,4217.435794,4221.025538,4230.769127,4151.79477,3452.820428,4214.871692,4283.076818,4199.487077,4208.205025,4205.128102
68,0,4214.358871,4224.615281,4233.33323,4225.640922,4224.102461,4218.974256,4230.769127,4149.230668,3524.615298,4188.205026,4277.435793,4199.999897,4207.179384,4209.230666
69,0,4217.948615,4226.666563,4233.33323,4231.281948,4224.102461,4216.922974,4226.666563,4141.02554,3588.20504,4187.179385,4273.846049,4200.512718,4205.128102,4218.974256
70,0,4214.358871,4226.666563,4230.256307,4221.538358,4219.999897,4216.922974,4219.487076,4135.897335,3661.025552,4202.051179,4274.35887,4203.589641,4207.692205,4217.435794
71,0,4210.256307,4231.794768,4233.84605,4219.487076,4217.948615,4217.435794,4217.435794,4141.02554,3735.897345,4210.256307,4278.461434,4207.692205,4215.384512,4214.358871
72,0,4218.974256,4236.922973,4243.076819,4232.820409,4222.051179,4218.461435,4218.461435,4144.102463,3789.743497,4210.769128,4277.948613,4211.794769,4221.538358,4222.563999
73,0,4241.025537,4235.897332,4241.025537,4231.281948,4224.102461,4219.487076,4216.922974,4139.999899,3819.487086,4205.640923,4277.948613,4211.794769,4222.051179,4235.384512
74,0,4235.384512,4226.666563,4230.256307,4216.410153,4214.871692,4217.948615,4217.435794,4140.512719,3837.435804,4199.487077,4278.461434,4200.512718,4214.871692,4232.307589
75,0,4198.974256,4219.999897,4230.769127,4212.307589,4212.82041,4214.871692,4218.461435,4146.666565,3845.128111,4196.922974,4271.281947,4197.948615,4207.179384,4219.487076
76,0,4189.743487,4221.538358,4232.307589,4218.461435,4223.07682,4216.922974,4219.999897,4147.179386,3844.10247,4195.897333,4265.640921,4207.692205,4207.179384,4217.948615
77,0,4214.358871,4226.153743,4225.640922,4222.051179,4222.563999,4221.025538,4219.999897,4145.128104,3830.256317,4198.974256,4267.692203,4206.666564,4211.794769,4224.615281
78,0,4228.717845,4225.128102,4223.07682,4222.563999,4213.846051,4215.897333,4214.871692,4144.615283,3811.794779,4209.230666,4269.743485,4197.435795,4212.307589,4221.538358
79,0,4226.153743,4228.205025,4231.281948,4222.563999,4217.948615,4214.358871,4219.487076,4150.256309,3799.999907,4221.025538,4275.384511,4198.974256,4214.871692,4222.563999
80,0,4228.717845,4238.974255,4235.897332,4224.102461,4228.717845,4226.153743,4231.794768,4161.025539,3794.358882,4227.692204,4285.1281,4206.666564,4226.666563,4238.461435
81,0,4229.743486,4237.435794,4235.897332,4224.615281,4226.666563,4229.743486,4234.871691,4164.102462,3779.487087,4225.128102,4282.051177,4212.307589,4230.769127,4244.615281
82,0,4218.974256,4223.07682,4238.974255,4219.487076,4222.563999,4221.538358,4232.820409,4157.948616,3761.025549,4220.512717,4275.897331,4217.435794,4226.153743,4236.922973
83,0,4215.897333,4219.999897,4240.512717,4214.871692,4224.615281,4217.948615,4229.743486,4153.333232,3747.179396,4223.58964,4278.461434,4222.563999,4222.563999,4228.717845
84,0,4218.461435,4227.179384,4235.384512,4215.384512,4225.128102,4218.461435,4222.563999,4148.205027,3723.589653,4215.897333,4271.794767,4218.461435,4215.897333,4221.025538
85,0,4217.948615,4228.205025,4232.307589,4218.461435,4220.512717,4217.435794,4219.999897,4143.589642,3704.102474,4196.410154,4261.025537,4209.230666,4206.153743,4219.487076
86,0,4224.102461,4223.07682,4231.794768,4220.512717,4216.410153,4217.948615,4224.102461,4145.128104,3710.76914,4191.281949,4264.61528,4204.615282,4206.666564,4231.794768
87,0,4224.102461,4217.948615,4229.743486,4216.410153,4209.743487,4216.922974,4217.435794,4146.666565,3720.51273,4198.461436,4264.10246,4203.07682,4205.640923,4230.769127
88,0,4207.179384,4220.512717,4229.230666,4214.871692,4208.717846,4213.846051,4214.358871,4151.28195,3735.897345,4204.102461,4258.974255,4203.07682,4203.07682,4210.256307
89,0,4209.743487,4228.717845,4233.33323,4217.435794,4216.922974,4215.897333,4225.640922,4163.589642,3768.717857,4212.82041,4269.230665,4207.692205,4213.33323,4213.846051
90,0,4237.948614,4232.307589,4237.948614,4219.999897,4220.512717,4216.410153,4228.205025,4163.589642,3786.666574,4227.692204,4278.461434,4214.358871,4224.615281,4239.487076
91,0,4234.358871,4228.205025,4236.922973,4216.410153,4220.512717,4214.358871,4219.487076,4150.256309,3790.256318,4225.128102,4272.820408,4213.33323,4216.922974,4235.384512
92,0,4218.974256,4225.640922,4234.358871,4215.897333,4225.128102,4216.922974,4217.948615,4143.589642,3812.82042,4209.743487,4270.769126,4205.128102,4208.717846,4217.435794
93,0,4227.179384,4226.153743,4234.358871,4220.512717,4219.487076,4219.999897,4219.487076,4147.692206,3847.179393,4207.179384,4269.230665,4199.487077,4209.230666,4219.487076
94,0,4220.512717,4229.743486,4237.948614,4219.999897,4213.846051,4217.435794,4216.922974,4149.743488,3861.538367,4217.948615,4266.153742,4199.999897,4208.717846,4224.102461
95,0,4206.666564,4235.897332,4237.435794,4218.461435,4222.563999,4216.410153,4215.897333,4136.410155,3861.538367,4214.871692,4268.205024,4208.205025,4209.230666,4218.974256
96,0,4227.179384,4242.051178,4236.410153,4225.128102,4227.179384,4219.999897,4217.948615,4130.76913,3870.769136,4203.589641,4268.717844,4215.384512,4212.82041,4219.487076
97,0,4250.769127,4244.10246,4236.410153,4232.307589,4222.563999,4219.999897,4218.461435,4144.102463,3898.461443,4207.692205,4269.230665,4213.33323,4215.384512,4229.230666
98,0,4245.128101,4242.051178,4237.948614,4229.230666,4222.051179,4215.897333,4217.948615,4151.28195,3916.410161,4211.281948,4272.820408,4213.846051,4213.846051,4236.922973
99,0,4233.33323,4242.051178,4239.999896,4227.179384,4222.563999,4215.897333,4215.384512,4145.128104,3913.846058,4200.512718,4272.820408,4218.461435,4210.256307,4232.307589
100,0,4228.205025,4244.10246,4239.999896,4231.281948,4224.615281,4217.948615,4214.358871,4143.076822,3921.025545,4199.487077,4273.333229,4221.538358,4211.281948,4230.256307
101,0,4229.743486,4246.666563,4239.999896,4232.820409,4229.230666,4217.948615,4215.384512,4148.205027,3948.205032,4209.230666,4270.769126,4217.435794,4216.922974,4234.871691
102,0,4243.58964,4244.615281,4241.025537,4229.230666,4224.102461,4217.435794,4215.384512,4149.230668,3961.025544,4204.615282,4260.512716,4210.769128,4210.769128,4232.307589
103,0,4262.563998,4250.256306,4244.10246,4228.205025,4215.897333,4217.435794,4214.358871,4151.28195,3964.102467,4193.846051,4261.025537,4215.897333,4203.07682,4229.230666
104,0,4280.512716,4269.230665,4251.281947,4233.84605,4218.974256,4216.922974,4214.871692,4151.28195,3973.333236,4199.487077,4270.769126,4227.179384,4214.358871,4247.179383
105,0,4297.435792,4284.61528,4257.435793,4233.84605,4222.563999,4215.897333,4213.846051,4143.589642,3972.820416,4209.230666,4270.769126,4227.692204,4225.640922,4270.256306
106,0,4318.974253,4295.38451,4258.461434,4233.33323,4219.487076,4218.461435,4213.33323,4133.846053,3961.538365,4199.999897,4268.717844,4226.666563,4221.538358,4281.538357
107,0,4341.025535,4312.820407,4261.538357,4243.58964,4219.487076,4220.512717,4214.871692,4130.256309,3952.307596,4185.640923,4272.820408,4243.076819,4221.025538,4296.922972
108,0,4371.794765,4326.666561,4269.230665,4251.281947,4220.512717,4218.461435,4216.922974,4132.820412,3938.974263,4184.102462,4272.307588,4253.333229,4232.307589,4324.615279
109,0,4422.051174,4336.922971,4274.87169,4254.871691,4220.512717,4218.461435,4218.461435,4138.461437,3922.051186,4198.461436,4278.974254,4253.333229,4240.512717,4357.435791
110,0,4455.897327,4351.281945,4280.512716,4261.538357,4219.487076,4217.948615,4219.999897,4148.205027,3912.307597,4204.102461,4290.769126,4262.051178,4244.10246,4382.051175
111,0,4461.538352,4365.128098,4291.794767,4266.153742,4222.563999,4218.461435,4219.999897,4150.769129,3892.820418,4198.974256,4292.820408,4274.87169,4250.769127,4392.820405
112,0,4456.410147,4360.512714,4298.461433,4263.589639,4222.051179,4222.563999,4216.922974,4139.999899,3852.820419,4198.974256,4286.153741,4281.025536,4248.205024,4383.589636
113,0,4449.23066,4347.692201,4291.794767,4263.076819,4219.487076,4221.538358,4215.897333,4133.846053,3813.33324,4199.487077,4279.999895,4271.794767,4235.897332,4363.076816
114,0,4439.487071,4337.435791,4279.487075,4265.128101,4217.435794,4217.435794,4216.922974,4139.487078,3790.256318,4187.179385,4277.435793,4250.769127,4225.640922,4353.846047
115,0,4419.999892,4328.205022,4270.256306,4259.487075,4219.999897,4218.461435,4217.948615,4146.666565,3774.871703,4182.564,4275.384511,4244.10246,4221.025538,4346.15374
116,0,4385.128098,4317.435792,4262.563998,4252.307588,4225.128102,4220.512717,4216.922974,4146.153745,3749.230678,4200.512718,4266.666562,4248.717845,4218.974256,4319.999894
117,0,4347.179381,4304.615279,4260.512716,4246.153742,4224.102461,4217.435794,4212.307589,4141.02554,3716.922986,4207.179384,4265.128101,4246.153742,4221.538358,4299.487074
118,0,4331.281945,4288.205023,4263.589639,4239.487076,4218.974256,4216.922974,4214.871692,4144.102463,3701.538371,4199.999897,4279.487075,4242.051178,4221.538358,4298.461433
119,0,4324.615279,4272.307588,4258.974255,4235.897332,4217.948615,4218.461435,4222.051179,4153.846052,3695.384525,4204.102461,4287.179382,4239.999896,4214.871692,4287.692203
120,0,4305.64092,4264.61528,4250.769127,4235.897332,4222.051179,4218.461435,4223.07682,4158.974257,3684.102474,4214.871692,4284.61528,4237.948614,4215.384512,4266.666562
121,0,4289.743485,4261.538357,4251.281947,4234.871691,4223.58964,4223.07682,4218.974256,4163.589642,3673.846064,4230.769127,4286.666562,4241.538358,4219.487076,4263.076819
122,0,4276.410152,4256.410152,4250.256306,4232.820409,4226.153743,4227.692204,4218.461435,4166.153744,3662.051193,4244.10246,4287.692203,4239.999896,4218.461435,4266.666562
123,0,4255.384511,4249.743486,4248.717845,4231.281948,4231.794768,4227.179384,4224.102461,4154.358873,3630.769142,4231.794768,4276.922972,4230.256307,4212.82041,4255.384511
124,0,4245.128101,4248.717845,4250.256306,4231.794768,4232.820409,4227.692204,4230.256307,4145.640924,3595.897348,4207.692205,4270.256306,4228.205025,4208.205025,4242.563999
125,0,4255.897332,4250.256306,4244.615281,4233.84605,4234.871691,4231.794768,4231.281948,4153.846052,3574.871707,4212.307589,4271.281947,4226.666563,4204.615282,4240.512717
126,0,4254.35887,4245.128101,4238.974255,4234.358871,4237.435794,4231.794768,4231.281948,4162.564001,3555.897349,4225.128102,4273.333229,4224.102461,4204.615282,4238.974255
127,0,4234.358871,4237.948614,4239.487076,4230.769127,4232.820409,4228.717845,4230.769127,4164.102462,3530.256324,4218.461435,4274.35887,4226.153743,4205.128102,4233.33323
128,0,4225.640922,4241.538358,4238.461435,4230.256307,4229.743486,4228.205025,4226.666563,4166.666565,3511.281965,4220.512717,4275.897331,4227.179384,4205.640923,4237.435794
0,0,4219.999897,4242.563999,4235.384512,4231.794768,4228.717845,4225.640922,4223.58964,4165.640924,3500.512735,4227.692204,4272.307588,4223.58964,4201.538359,4237.435794
1,0,4216.922974,4239.487076,4235.384512,4231.794768,4230.256307,4225.640922,4227.179384,4162.05118,3496.922991,4219.487076,4267.179383,4223.07682,4198.461436,4225.128102
2,0,4221.538358,4237.435794,4233.33323,4231.794768,4236.922973,4229.743486,4231.281948,4164.102462,3504.615299,4215.384512,4266.153742,4216.410153,4197.435795,4221.025538
3,0,4219.999897,4234.358871,4232.307589,4230.256307,4236.410153,4228.717845,4231.281948,4165.640924,3514.871709,4217.948615,4263.589639,4203.589641,4191.794769,4229.230666
4,0,4210.256307,4234.871691,4233.84605,4228.205025,4227.179384,4226.153743,4230.769127,4163.589642,3529.230683,4214.358871,4263.076819,4203.07682,4189.230667,4225.128102
5,0,4203.589641,4237.435794,4236.410153,4231.794768,4229.743486,4231.281948,4230.256307,4161.53836,3552.820426,4220.512717,4265.640921,4211.794769,4191.281949,4208.717846
6,0,4205.640923,4231.794768,4236.410153,4235.384512,4234.358871,4230.769127,4229.743486,4155.384514,3577.43581,4225.640922,4261.538357,4213.846051,4192.30759,4205.128102
7,0,4213.846051,4225.640922,4231.281948,4232.307589,4227.692204,4221.538358,4224.102461,4150.256309,3600.512732,4211.281948,4262.051178,4213.846051,4193.333231,4210.769128
8,0,4211.794769,4226.666563,4226.666563,4229.230666,4224.102461,4220.512717,4220.512717,4155.384514,3626.666578,4204.615282,4267.179383,4217.435794,4194.871692,4209.230666
9,0,4197.948615,4226.153743,4226.153743,4229.743486,4226.666563,4222.051179,4223.07682,4163.076821,3652.820423,4218.461435,4263.589639,4217.435794,4192.82041,4205.640923
10,0,4189.743487,4220.512717,4224.615281,4223.58964,4229.743486,4217.948615,4227.692204,4165.128103,3673.846064,4222.563999,4259.999896,4211.794769,4190.256308,4210.769128
11,0,4194.358872,4218.461435,4226.153743,4214.871692,4228.717845,4217.435794,4227.179384,4162.564001,3688.717859,4213.846051,4258.974255,4211.794769,4190.256308,4216.410153
12,0,4203.589641,4222.051179,4229.230666,4217.948615,4224.615281,4220.512717,4222.051179,4153.333232,3700.51273,4204.615282,4253.333229,4212.82041,4188.205026,4212.82041
13,0,4198.461436,4223.58964,4226.153743,4224.615281,4224.615281,4218.974256,4217.948615,4145.640924,3716.922986,4199.999897,4248.717845,4210.769128,4181.025539,4206.666564
14,0,4184.615282,4220.512717,4218.461435,4222.563999,4228.717845,4216.410153,4217.435794,4147.692206,3748.205037,4205.640923,4250.256306,4208.205025,4177.948616,4203.07682
15,0,4186.153744,4216.410153,4214.358871,4218.974256,4227.179384,4218.974256,4218.974256,4150.256309,3788.717856,4211.794769,4252.307588,4206.666564,4184.102462,4203.07682
16,0,4198.461436,4219.999897,4217.948615,4216.922974,4225.640922,4220.512717,4221.025538,4155.384514,3823.07683,4220.512717,4259.999896,4210.256307,4193.333231,4211.281948
17,0,4196.410154,4222.051179,4221.538358,4217.948615,4225.128102,4219.487076,4219.487076,4162.05118,3835.897342,4232.820409,4267.179383,4215.897333,4193.333231,4220.512717
18,0,4190.769128,4216.410153,4219.999897,4223.58964,4222.563999,4217.435794,4218.974256,4162.564001,3833.33324,4236.410153,4259.999896,4219.487076,4191.794769,4221.538358
19,0,4187.179385,4213.33323,4221.538358,4226.666563,4222.051179,4218.974256,4224.615281,4163.589642,3836.410163,4228.205025,4255.384511,4217.435794,4195.384513,4216.922974
20,0,4174.358872,4216.922974,4222.051179,4218.974256,4224.102461,4219.999897,4225.640922,4165.128103,3832.820419,4222.563999,4259.999896,4210.769128,4194.358872,4212.307589
21,0,4169.743488,4211.794769,4214.871692,4213.846051,4222.051179,4216.922974,4217.435794,4152.307591,3803.07683,4214.358871,4251.794768,4199.999897,4178.974257,4203.589641
22,0,4177.435795,4203.589641,4216.410153,4223.58964,4219.999897,4219.999897,4215.384512,4137.435796,3758.974267,4201.538359,4242.051178,4192.82041,4167.179385,4196.922974
23,0,4181.538359,4206.666564,4225.128102,4230.769127,4225.128102,4223.07682,4219.487076,4144.102463,3732.820422,4204.102461,4249.743486,4201.025538,4173.846052,4203.07682
24,0,4177.948616,4211.281948,4226.666563,4222.563999,4230.769127,4221.538358,4222.051179,4162.05118,3719.487089,4218.974256,4255.897332,4209.230666,4179.487077,4207.692205
25,0,4171.79477,4208.205025,4223.07682,4219.999897,4228.205025,4223.58964,4227.692204,4166.153744,3688.717859,4219.487076,4249.743486,4204.102461,4174.358872,4205.640923
26,0,4179.487077,4205.128102,4224.615281,4225.128102,4224.615281,4229.743486,4233.33323,4161.53836,3652.307603,4212.82041,4255.384511,4207.179384,4178.461436,4211.794769
27,0,4191.281949,4208.717846,4228.205025,4223.07682,4228.205025,4229.743486,4229.230666,4161.53836,3628.205039,4219.487076,4267.179383,4219.999897,4186.666564,4219.999897
28,0,4178.974257,4210.256307,4228.205025,4221.538358,4229.230666,4228.205025,4225.128102,4164.615283,3607.179399,4228.205025,4260.512716,4217.948615,4184.102462,4215.384512
29,0,4163.076821,4206.666564,4222.051179,4223.07682,4227.179384,4227.179384,4225.128102,4162.05118,3588.20504,4223.07682,4248.205024,4208.205025,4181.025539,4210.256307
30,0,4174.358872,4205.128102,4217.435794,4219.487076,4227.692204,4222.051179,4228.205025,4163.076821,3585.640938,4215.897333,4253.333229,4207.692205,4187.692205,4215.897333
31,0,4184.102462,4206.666564,4220.512717,4216.410153,4225.640922,4217.948615,4231.794768,4172.30759,3592.307604,4219.999897,4263.076819,4209.743487,4192.82041,4216.410153
32,0,4176.410154,4207.692205,4223.07682,4217.948615,4219.487076,4221.025538,4231.281948,4167.692206,3585.640938,4227.692204,4261.538357,4209.230666,4190.256308,4207.692205
33,0,4178.974257,4209.230666,4226.666563,4221.025538,4222.563999,4227.692204,4227.692204,4154.358873,3573.846066,4225.128102,4263.589639,4213.846051,4192.82041,4210.769128
34,0,4190.769128,4210.769128,4228.205025,4222.563999,4229.743486,4228.205025,4228.205025,4155.897334,3577.94863,4212.307589,4265.640921,4215.897333,4194.871692,4218.974256
35,0,4182.05118,4206.666564,4219.487076,4218.974256,4226.153743,4221.025538,4230.256307,4165.640924,3589.230681,4215.384512,4253.84605,4211.794769,4188.205026,4208.205025
36,0,4161.53836,4202.051179,4212.82041,4214.358871,4219.999897,4218.974256,4227.179384,4159.999898,3594.358886,4222.051179,4250.769127,4206.153743,4185.640923,4191.281949
37,0,4171.281949,4211.281948,4215.384512,4224.102461,4231.281948,4224.102461,4228.717845,4156.410155,3608.20504,4218.974256,4265.128101,4206.666564,4198.461436,4203.07682
38,0,4196.922974,4222.051179,4218.974256,4233.84605,4239.487076,4229.230666,4235.384512,4166.666565,3638.97427,4221.025538,4266.666562,4211.281948,4209.743487,4221.025538
39,0,4200.512718,4221.538358,4222.563999,4228.205025,4230.256307,4228.205025,4234.871691,4175.384513,3666.153757,4231.794768,4258.461434,4213.33323,4207.692205,4214.871692
40,0,4188.205026,4212.307589,4222.051179,4219.487076,4221.538358,4219.999897,4229.743486,4171.79477,3687.692218,4226.666563,4259.999896,4208.205025,4202.051179,4205.128102
41,0,4184.102462,4211.281948,4219.999897,4218.974256,4226.153743,4217.948615,4229.743486,4168.717847,3714.871704,4216.922974,4258.974255,4205.640923,4204.615282,4207.692205
42,0,4185.128103,4214.871692,4222.563999,4221.538358,4227.179384,4224.102461,4232.307589,4174.358872,3751.79478,4226.153743,4252.307588,4210.769128,4205.128102,4209.743487
43,0,4182.564,4211.281948,4225.640922,4219.487076,4224.615281,4223.07682,4230.256307,4179.487077,3786.153754,4226.153743,4251.794768,4216.410153,4196.922974,4206.153743
44,0,4175.897334,4206.666564,4223.07682,4216.410153,4226.153743,4221.538358,4228.205025,4174.358872,3811.794779,4210.769128,4250.769127,4213.846051,4193.333231,4206.666564
45,0,4174.871693,4208.205025,4219.999897,4215.384512,4227.692204,4226.666563,4228.205025,4163.589642,3832.307599,4205.640923,4247.692204,4209.230666,4195.384513,4208.717846
46,0,4193.846051,4213.846051,4222.563999,4218.461435,4230.256307,4226.153743,4228.717845,4159.999898,3856.410162,4217.948615,4258.461434,4210.769128,4201.025538,4208.717846
47,0,4198.461436,4211.794769,4226.666563,4221.538358,4230.256307,4226.153743,4228.717845,4164.615283,3872.307598,4229.743486,4264.10246,4217.948615,4206.153743,4209.743487
48,0,4184.615282,4214.358871,4227.692204,4226.153743,4233.33323,4231.794768,4231.281948,4171.281949,3872.820418,4230.256307,4254.35887,4223.58964,4205.640923,4217.435794
49,0,4199.487077,4224.102461,4230.769127,4231.794768,4236.922973,4232.307589,4234.871691,4176.922975,3868.205034,4225.128102,4256.922973,4226.153743,4209.230666,4227.179384
50,0,4217.948615,4224.102461,4233.84605,4228.717845,4230.256307,4229.743486,4233.33323,4180.512718,3855.384521,4225.640922,4269.743485,4227.692204,4219.999897,4225.128102
51,0,4196.410154,4218.461435,4231.794768,4224.615281,4226.153743,4230.256307,4231.794768,4177.435795,3827.692214,4224.102461,4264.10246,4224.102461,4215.897333,4215.384512
52,0,4182.564,4217.948615,4227.179384,4224.615281,4231.281948,4228.205025,4234.358871,4173.333231,3793.333241,4209.230666,4249.230665,4223.07682,4207.179384,4215.384512
53,0,4200.512718,4218.974256,4224.615281,4219.487076,4228.717845,4228.205025,4233.84605,4166.153744,3759.487088,4199.999897,4246.666563,4226.153743,4208.205025,4222.563999
54,0,4198.461436,4214.871692,4218.461435,4218.974256,4222.051179,4229.230666,4228.205025,4162.05118,3730.256319,4207.179384,4253.84605,4220.512717,4207.179384,4222.563999
55,0,4188.717846,4212.82041,4214.871692,4221.538358,4225.128102,4228.205025,4228.205025,4172.820411,3711.794781,4211.281948,4253.333229,4211.281948,4202.564,4212.307589
56,0,4197.948615,4215.897333,4215.897333,4218.974256,4228.717845,4227.692204,4233.84605,4181.538359,3690.769141,4213.33323,4249.743486,4216.410153,4204.615282,4209.743487
57,0,4201.025538,4218.461435,4218.461435,4225.640922,4230.256307,4229.230666,4234.871691,4179.999898,3657.948629,4219.487076,4251.794768,4223.07682,4208.205025,4215.897333
58,0,4198.461436,4219.999897,4221.025538,4231.281948,4234.871691,4230.256307,4233.33323,4181.025539,3626.666578,4230.256307,4255.384511,4222.563999,4208.717846,4219.999897
59,0,4198.974256,4216.410153,4219.999897,4224.102461,4232.307589,4228.717845,4233.33323,4175.384513,3598.974271,4236.410153,4254.35887,4219.487076,4205.640923,4223.07682
60,0,4195.384513,4214.358871,4214.871692,4223.58964,4227.179384,4226.153743,4232.307589,4165.128103,3576.410169,4224.615281,4252.307588,4214.358871,4198.974256,4224.102461
61,0,4195.384513,4213.846051,4214.358871,4226.666563,4226.666563,4227.179384,4231.281948,4164.102462,3567.69222,4207.692205,4248.205024,4211.281948,4196.410154,4216.922974
62,0,4197.948615,4211.281948,4218.461435,4218.974256,4225.128102,4229.230666,4233.33323,4167.692206,3568.717861,4205.128102,4243.58964,4218.461435,4199.487077,4218.461435
63,0,4195.897333,4210.769128,4216.410153,4215.384512,4223.58964,4226.153743,4234.871691,4165.640924,3576.922989,4208.717846,4244.615281,4220.512717,4201.538359,4228.205025
64,0,4195.897333,4209.743487,4211.794769,4219.999897,4223.07682,4221.025538,4232.307589,4165.640924,3603.076835,4212.82041,4250.769127,4214.358871,4204.102461,4222.051179
65,0,4193.333231,4210.256307,4211.281948,4218.974256,4220.512717,4217.948615,4230.256307,4171.281949,3646.153757,4224.102461,4260.512716,4220.512717,4208.717846,4222.051179
66,0,4195.897333,4216.922974,4212.82041,4218.461435,4223.07682,4217.435794,4231.281948,4173.333231,3687.692218,4232.307589,4272.307588,4228.205025,4216.410153,4243.58964
67,0,4211.281948,4225.128102,4212.307589,4219.999897,4232.820409,4221.025538,4233.84605,4176.410154,3723.589653,4237.948614,4273.333229,4224.615281,4222.051179,4245.640922
68,0,4213.33323,4223.07682,4211.794769,4217.948615,4230.769127,4227.179384,4236.410153,4186.666564,3755.897344,4241.025537,4260.512716,4225.640922,4217.948615,4226.153743
69,0,4201.538359,4219.487076,4211.794769,4217.948615,4221.025538,4229.230666,4235.384512,4190.256308,3765.640934,4233.33323,4251.794768,4227.692204,4205.640923,4216.922974
70,0,4200.512718,4219.487076,4214.358871,4219.999897,4222.051179,4226.153743,4231.281948,4175.897334,3752.307601,4225.128102,4251.281947,4217.435794,4198.974256,4218.461435
71,0,4204.615282,4216.922974,4217.435794,4220.512717,4228.205025,4227.179384,4230.769127,4168.717847,3745.640934,4220.512717,4246.666563,4210.769128,4202.051179,4220.512717
72,0,4195.384513,4211.281948,4211.794769,4216.410153,4224.102461,4226.666563,4230.769127,4168.205026,3742.564011,4211.794769,4236.410153,4211.794769,4198.461436,4216.410153
73,0,4196.410154,4213.846051,4206.153743,4215.384512,4222.051179,4222.051179,4229.230666,4159.487078,3732.307601,4205.640923,4242.563999,4216.922974,4197.948615,4212.82041
74,0,4214.871692,4221.025538,4208.205025,4224.615281,4226.666563,4222.051179,4229.230666,4156.922975,3734.871704,4206.153743,4254.35887,4220.512717,4206.666564,4224.102461
75,0,4216.922974,4225.128102,4211.281948,4230.256307,4227.179384,4223.58964,4230.256307,4163.589642,3746.153755,4218.461435,4252.307588,4222.051179,4210.769128,4233.33323
76,0,4196.410154,4224.102461,4213.33323,4223.58964,4224.615281,4219.487076,4229.230666,4167.179385,3750.769139,4226.666563,4253.333229,4222.563999,4208.205025,4219.487076
77,0,4192.82041,4220.512717,4217.948615,4215.897333,4225.128102,4219.487076,4230.256307,4175.897334,3762.05119,4225.640922,4257.948614,4221.538358,4211.794769,4210.769128
78,0,4211.281948,4216.410153,4217.435794,4217.435794,4225.640922,4223.58964,4233.33323,4186.666564,3782.56401,4226.666563,4254.871691,4220.512717,4216.410153,4223.58964
79,0,4214.358871,4214.358871,4216.410153,4219.487076,4221.538358,4222.051179,4232.820409,4185.640923,3796.922984,4226.153743,4248.717845,4225.128102,4208.717846,4226.666563
80,0,4207.179384,4213.33323,4216.922974,4218.974256,4217.948615,4221.538358,4227.692204,4172.820411,3798.461446,4213.846051,4242.563999,4228.717845,4194.871692,4211.794769
81,0,4211.281948,4210.256307,4217.948615,4223.58964,4219.999897,4225.128102,4225.128102,4163.076821,3803.07683,4205.128102,4236.922973,4217.948615,4189.230667,4207.179384
82,0,4210.769128,4212.307589,4218.974256,4224.615281,4225.640922,4226.666563,4227.179384,4167.692206,3828.205035,4206.666564,4239.999896,4208.205025,4193.846051,4214.871692
83,0,4201.025538,4219.487076,4217.435794,4219.487076,4228.205025,4228.205025,4229.743486,4176.410154,3866.153752,4212.82041,4244.615281,4213.846051,4203.07682,4217.948615
84,0,4198.461436,4219.487076,4212.82041,4217.435794,4225.640922,4228.205025,4230.256307,4175.897334,3898.974264,4222.051179,4248.205024,4222.051179,4209.230666,4212.307589
85,0,4204.615282,4213.33323,4209.743487,4218.461435,4224.102461,4226.153743,4229.743486,4175.897334,3923.076827,4227.692204,4256.410152,4219.487076,4211.794769,4207.179384
86,0,4212.307589,4216.410153,4209.230666,4219.487076,4226.666563,4226.153743,4231.794768,4177.948616,3959.487083,4233.84605,4258.974255,4216.922974,4214.358871,4216.410153
87,0,4217.435794,4220.512717,4207.692205,4218.974256,4226.666563,4226.153743,4228.205025,4168.717847,4000.512723,4234.358871,4253.333229,4224.615281,4218.974256,4230.769127
88,0,4211.281948,4214.358871,4207.692205,4218.461435,4221.538358,4220.512717,4219.999897,4156.922975,4026.666568,4216.922974,4249.743486,4224.615281,4214.871692,4228.205025
89,0,4192.30759,4207.179384,4207.692205,4216.410153,4218.974256,4219.999897,4221.538358,4157.435796,4055.897337,4201.538359,4241.538358,4209.743487,4205.128102,4209.230666
90,0,4184.102462,4207.692205,4205.640923,4215.897333,4225.640922,4224.615281,4231.281948,4167.692206,4105.640925,4207.179384,4234.358871,4203.07682,4201.025538,4201.025538
91,0,4189.743487,4205.128102,4198.461436,4215.384512,4227.179384,4223.07682,4232.820409,4174.871693,4153.333232,4204.615282,4233.84605,4203.589641,4196.410154,4205.128102
92,0,4201.025538,4204.615282,4197.435795,4215.384512,4223.58964,4222.051179,4229.230666,4175.897334,4187.179385,4198.461436,4236.410153,4206.666564,4195.897333,4208.717846
93,0,4206.666564,4210.256307,4206.666564,4217.435794,4225.128102,4226.666563,4231.281948,4181.025539,4226.153743,4219.487076,4239.999896,4217.435794,4203.589641,4213.33323
94,0,4200.512718,4208.717846,4205.128102,4217.435794,4226.666563,4222.563999,4231.794768,4187.179385,4255.897332,4236.922973,4244.10246,4221.538358,4206.666564,4210.769128
95,0,4194.871692,4202.051179,4197.435795,4216.922974,4220.512717,4215.897333,4229.743486,4184.102462,4266.153742,4222.563999,4243.076819,4212.82041,4206.153743,4203.589641
96,0,4198.461436,4201.025538,4196.922974,4215.897333,4218.461435,4217.948615,4228.205025,4179.999898,4271.281947,4214.358871,4245.640922,4213.846051,4210.256307,4212.82041
97,0,4201.538359,4201.025538,4201.025538,4213.846051,4218.461435,4218.974256,4223.58964,4175.897334,4270.256306,4220.512717,4251.281947,4219.487076,4213.846051,4226.153743
98,0,4194.358872,4197.948615,4199.487077,4213.33323,4213.33323,4216.922974,4216.410153,4163.076821,4249.230665,4214.871692,4246.153742,4210.769128,4209.743487,4216.922974
99,0,4186.153744,4196.410154,4194.871692,4215.384512,4216.922974,4216.410153,4215.897333,4155.384514,4226.666563,4207.692205,4235.897332,4203.589641,4205.640923,4201.538359
100,0,4191.794769,4201.538359,4197.948615,4216.410153,4225.128102,4218.974256,4224.102461,4167.179385,4218.461435,4212.307589,4237.948614,4211.281948,4205.640923,4210.769128
101,0,4211.794769,4210.769128,4204.102461,4218.974256,4223.07682,4225.128102,4229.743486,4178.461436,4202.051179,4211.794769,4246.666563,4219.999897,4211.794769,4224.102461
102,0,4220.512717,4210.256307,4201.538359,4219.487076,4218.974256,4226.153743,4227.692204,4179.487077,4165.128103,4212.307589,4243.58964,4218.461435,4214.358871,4215.897333
103,0,4202.051179,4198.974256,4193.846051,4215.897333,4218.461435,4218.974256,4228.205025,4186.666564,4137.948617,4216.922974,4238.974255,4210.769128,4207.692205,4205.128102
104,0,4193.846051,4198.974256,4197.435795,4216.922974,4222.051179,4219.999897,4232.307589,4195.384513,4126.666566,4218.974256,4250.256306,4213.846051,4210.256307,4215.897333
105,0,4205.128102,4208.205025,4203.07682,4218.974256,4227.692204,4225.128102,4228.205025,4191.794769,4108.717848,4227.179384,4258.974255,4221.538358,4219.999897,4227.179384
106,0,4202.051179,4204.615282,4196.410154,4214.358871,4219.999897,4218.461435,4217.435794,4177.435795,4081.025541,4225.640922,4247.692204,4216.922974,4214.871692,4219.487076
107,0,4196.410154,4199.999897,4191.794769,4213.33323,4216.410153,4215.897333,4214.871692,4169.743488,4067.692208,4214.358871,4241.025537,4207.692205,4208.717846,4218.461435
108,0,4203.07682,4206.666564,4194.358872,4218.974256,4228.205025,4223.07682,4223.58964,4168.717847,4073.846054,4219.487076,4251.281947,4211.281948,4218.461435,4224.615281
109,0,4209.743487,4211.794769,4195.897333,4219.487076,4230.769127,4222.563999,4229.743486,4167.179385,4075.384516,4223.58964,4253.333229,4220.512717,4221.025538,4222.563999
110,0,4209.230666,4209.743487,4194.358872,4218.461435,4223.07682,4223.07682,4229.230666,4162.564001,4076.922977,4208.205025,4242.563999,4219.999897,4210.256307,4218.974256
111,0,4207.179384,4212.307589,4194.871692,4220.512717,4227.179384,4231.794768,4230.256307,4171.281949,4101.538361,4208.205025,4242.051178,4217.435794,4211.794769,4224.102461
112,0,4206.153743,4217.435794,4197.948615,4226.153743,4232.307589,4233.84605,4233.33323,4187.692205,4130.256309,4229.230666,4252.307588,4221.538358,4223.07682,4227.692204
113,0,4211.281948,4220.512717,4202.051179,4230.769127,4230.256307,4229.230666,4234.358871,4193.333231,4144.615283,4229.230666,4256.922973,4232.307589,4228.717845,4223.07682
114,0,4223.58964,4223.07682,4203.589641,4231.794768,4230.769127,4229.230666,4235.897332,4198.461436,4159.999898,4220.512717,4254.35887,4237.948614,4229.230666,4229.743486
115,0,4228.717845,4221.025538,4203.07682,4229.230666,4229.743486,4230.769127,4236.410153,4208.717846,4171.79477,4231.794768,4258.461434,4230.769127,4228.205025,4246.666563
116,0,4224.615281,4219.999897,4205.128102,4230.256307,4228.205025,4228.205025,4233.33323,4208.717846,4172.820411,4241.025537,4264.61528,4233.33323,4228.717845,4254.871691
117,0,4221.538358,4223.58964,4207.179384,4231.794768,4231.281948,4230.256307,4232.307589,4196.410154,4172.30759,4239.999896,4262.563998,4245.128101,4234.358871,4250.769127
118,0,4216.922974,4221.025538,4208.205025,4229.743486,4228.717845,4231.794768,4231.281948,4186.666564,4169.230667,4240.512717,4250.769127,4241.025537,4233.84605,4236.922973
119,0,4215.897333,4212.82041,4208.717846,4229.230666,4220.512717,4226.153743,4227.179384,4178.461436,4163.589642,4229.230666,4244.615281,4230.256307,4226.153743,4229.230666
120,0,4221.538358,4209.230666,4200.512718,4230.256307,4221.025538,4221.025538,4222.051179,4171.281949,4168.717847,4210.769128,4249.230665,4221.538358,4218.461435,4234.358871
121,0,4218.461435,4212.307589,4188.717846,4229.230666,4223.07682,4219.999897,4217.435794,4169.743488,4174.871693,4205.640923,4246.666563,4212.82041,4212.307589,4235.384512
122,0,4204.102461,4216.410153,4189.743487,4226.666563,4221.538358,4218.974256,4218.461435,4169.743488,4179.999898,4214.871692,4241.538358,4211.794769,4209.743487,4223.07682
123,0,4208.205025,4217.948615,4194.871692,4229.230666,4224.615281,4223.58964,4225.640922,4175.897334,4196.922974,4229.743486,4241.538358,4218.461435,4210.769128,4218.461435
124,0,4221.538358,4217.948615,4189.743487,4233.84605,4230.769127,4229.743486,4228.717845,4186.153744,4213.846051,4237.948614,4241.025537,4218.974256,4212.307589,4226.666563
125,0,4213.846051,4213.33323,4182.05118,4231.281948,4225.640922,4223.07682,4227.179384,4187.179385,4219.487076,4230.769127,4241.538358,4215.384512,4209.743487,4228.205025
126,0,4209.743487,4209.230666,4186.153744,4227.179384,4217.948615,4213.846051,4227.179384,4187.179385,4228.717845,4227.179384,4241.538358,4221.538358,4208.717846,4223.07682
127,0,4219.487076,4210.256307,4193.333231,4229.230666,4219.999897,4217.435794,4229.743486,4193.846051,4244.615281,4228.717845,4242.563999,4230.769127,4209.230666,4212.82041
128,0,4213.846051,4212.82041,4191.281949,4230.769127,4218.974256,4220.512717,4227.692204,4189.743487,4254.871691,4223.58964,4243.076819,4226.666563,4208.205025,4208.717846
0,0,4195.897333,4209.743487,4188.717846,4226.666563,4214.871692,4217.948615,4221.025538,4175.897334,4261.538357,4218.461435,4234.358871,4214.358871,4203.07682,4209.230666
1,0,4198.461436,4210.256307,4192.82041,4229.230666,4218.461435,4222.051179,4217.435794,4171.281949,4271.281947,4215.384512,4228.205025,4213.33323,4202.051179,4214.358871
2,0,4218.974256,4219.487076,4201.538359,4236.410153,4225.128102,4228.205025,4220.512717,4172.820411,4291.794767,4221.025538,4241.025537,4223.07682,4212.307589,4229.743486
3,0,4226.153743,4225.640922,4207.692205,4234.871691,4233.33323,4230.256307,4228.717845,4179.487077,4325.64092,4237.435794,4253.333229,4234.871691,4223.58964,4232.307589
4,0,4216.922974,4225.128102,4203.589641,4231.281948,4234.871691,4226.666563,4229.230666,4190.256308,4352.307586,4235.384512,4248.717845,4233.84605,4221.025538,4218.974256
5,0,4216.922974,4224.102461,4194.358872,4232.820409,4224.102461,4221.025538,4225.128102,4193.333231,4373.333226,4230.769127,4248.205024,4218.974256,4214.871692,4218.974256
6,0,4222.051179,4218.974256,4193.846051,4232.820409,4219.999897,4220.512717,4228.205025,4195.897333,4410.256302,4245.128101,4253.333229,4218.461435,4215.384512,4231.281948
7,0,4214.358871,4212.307589,4202.564,4228.717845,4225.640922,4222.051179,4233.33323,4201.025538,4447.692199,4242.563999,4248.717845,4228.205025,4215.897333,4233.33323
8,0,4204.615282,4212.82041,4203.07682,4227.692204,4224.615281,4221.025538,4230.256307,4192.82041,4469.23066,4224.102461,4239.487076,4221.538358,4212.307589,4224.615281
9,0,4195.384513,4213.33323,4194.871692,4226.153743,4224.102461,4219.487076,4224.615281,4181.538359,4495.384505,4220.512717,4232.307589,4212.307589,4204.615282,4211.281948
10,0,4194.871692,4206.153743,4185.640923,4221.538358,4223.07682,4218.461435,4222.051179,4182.564,4524.615274,4216.410153,4226.666563,4210.256307,4192.82041,4202.564
11,0,4210.256307,4203.07682,4182.564,4217.948615,4211.794769,4215.384512,4217.435794,4178.461436,4540.512709,4201.025538,4221.538358,4201.025538,4187.179385,4211.794769
12,0,4213.846051,4208.205025,4187.179385,4219.487076,4208.717846,4214.871692,4216.410153,4171.79477,4558.461427,4195.897333,4228.205025,4199.999897,4194.358872,4224.615281
13,0,4198.974256,4215.897333,4194.358872,4223.07682,4215.897333,4217.948615,4220.512717,4174.358872,4584.615273,4204.615282,4238.461435,4212.82041,4202.051179,4228.205025
14,0,4200.512718,4218.974256,4194.358872,4225.640922,4221.025538,4218.461435,4218.974256,4177.948616,4603.076811,4219.999897,4239.487076,4218.974256,4206.666564,4222.051179
15,0,4207.179384,4213.33323,4189.230667,4229.743486,4219.999897,4216.922974,4217.435794,4182.564,4609.743477,4224.615281,4237.435794,4215.897333,4209.230666,4211.794769
16,0,4203.589641,4214.871692,4191.281949,4228.205025,4225.128102,4219.487076,4226.153743,4197.948615,4617.948605,4222.563999,4239.487076,4215.897333,4208.205025,4215.897333
17,0,4203.07682,4219.487076,4195.384513,4221.538358,4234.871691,4224.615281,4233.33323,4205.640923,4617.435785,4229.743486,4233.84605,4217.435794,4205.128102,4221.538358
18,0,4201.538359,4213.846051,4195.384513,4222.563999,4234.358871,4226.153743,4230.256307,4193.846051,4587.692196,4226.153743,4223.58964,4210.769128,4203.589641,4210.256307
19,0,4201.025538,4207.692205,4196.410154,4232.307589,4225.640922,4227.692204,4228.717845,4183.076821,4550.256299,4209.743487,4225.640922,4198.461436,4203.589641,4204.615282
20,0,4214.358871,4213.846051,4199.487077,4231.794768,4226.666563,4225.128102,4231.281948,4186.153744,4528.205017,4210.769128,4235.897332,4191.281949,4206.153743,4219.999897
21,0,4217.948615,4216.410153,4195.384513,4219.487076,4225.128102,4219.487076,4230.256307,4192.30759,4508.205018,4211.794769,4231.794768,4189.743487,4203.07682,4223.07682
22,0,4205.128102,4210.256307,4192.82041,4215.897333,4214.871692,4217.948615,4224.102461,4193.846051,4484.102454,4204.102461,4225.128102,4191.281949,4200.512718,4211.281948
23,0,4208.205025,4209.230666,4200.512718,4219.999897,4218.461435,4216.922974,4218.974256,4188.205026,4465.640916,4216.922974,4231.794768,4195.384513,4206.153743,4213.846051
24,0,4222.563999,4213.846051,4205.640923,4218.974256,4227.179384,4216.922974,4221.538358,4183.589641,4444.102455,4227.692204,4235.897332,4198.974256,4212.307589,4229.230666
25,0,4224.615281,4217.948615,4203.589641,4220.512717,4224.102461,4224.615281,4226.153743,4188.205026,4432.307584,4214.358871,4235.384512,4199.487077,4211.281948,4232.820409
26,0,4214.871692,4216.410153,4201.538359,4225.640922,4224.102461,4229.230666,4225.128102,4194.358872,4442.051173,4214.871692,4237.948614,4202.564,4212.307589,4228.205025
27,0,4211.794769,4217.435794,4200.512718,4224.615281,4227.692204,4225.640922,4225.128102,4194.871692,4447.179378,4235.384512,4241.025537,4204.615282,4219.999897,4234.871691
28,0,4213.33323,4217.948615,4201.025538,4219.999897,4224.102461,4223.07682,4227.179384,4190.769128,4435.384507,4232.307589,4238.461435,4196.922974,4219.999897,4243.58964
29,0,4208.717846,4212.307589,4199.999897,4219.487076,4218.974256,4221.025538,4227.179384,4194.871692,4436.410148,4217.948615,4238.974255,4189.743487,4215.897333,4239.999896
30,0,4210.769128,4215.384512,4201.538359,4221.538358,4221.025538,4217.948615,4228.717845,4202.564,4444.615276,4222.051179,4239.999896,4198.974256,4216.410153,4228.205025
31,0,4215.384512,4221.025538,4203.07682,4222.051179,4221.538358,4219.487076,4224.615281,4197.948615,4432.307584,4225.128102,4230.256307,4206.153743,4209.230666,4217.948615
32,0,4205.128102,4213.846051,4196.922974,4217.948615,4216.410153,4217.435794,4216.922974,4191.794769,4424.102456,4214.358871,4223.58964,4194.358872,4197.948615,4217.435794
33,0,4205.128102,4213.846051,4191.794769,4214.871692,4218.974256,4218.461435,4223.07682,4203.07682,4442.051173,4217.435794,4231.794768,4189.743487,4201.025538,4228.717845
34,0,4224.615281,4224.615281,4198.974256,4224.615281,4226.153743,4226.153743,4230.769127,4210.256307,4446.153737,4230.256307,4241.025537,4202.564,4211.794769,4238.974255
35,0,4225.128102,4228.717845,4205.128102,4231.281948,4225.640922,4229.230666,4226.666563,4198.461436,4425.640917,4226.666563,4244.10246,4208.205025,4219.999897,4239.487076
36,0,4203.589641,4221.538358,4196.410154,4221.025538,4221.025538,4225.128102,4224.615281,4190.769128,4418.974251,4216.922974,4244.615281,4196.410154,4217.435794,4232.307589
37,0,4197.435795,4212.82041,4186.153744,4213.33323,4221.025538,4221.538358,4227.692204,4194.871692,4426.666558,4214.871692,4234.871691,4187.692205,4207.692205,4222.563999
38,0,4207.179384,4210.256307,4184.102462,4216.922974,4223.07682,4219.487076,4223.07682,4191.281949,4426.153738,4212.307589,4222.563999,4192.82041,4203.589641,4214.358871
39,0,4209.743487,4217.435794,4186.153744,4218.461435,4227.179384,4216.922974,4216.922974,4181.538359,4419.999892,4208.717846,4229.743486,4198.461436,4207.692205,4218.974256
40,0,4206.666564,4222.051179,4185.640923,4215.897333,4229.230666,4214.871692,4215.897333,4177.435795,4414.871687,4205.640923,4235.897332,4195.897333,4208.205025,4228.205025
41,0,4213.846051,4222.563999,4189.230667,4222.563999,4226.153743,4217.948615,4218.461435,4183.589641,4415.897328,4209.230666,4230.769127,4195.384513,4210.769128,4225.128102
42,0,4215.897333,4227.179384,4193.846051,4228.717845,4224.615281,4218.974256,4221.538358,4190.256308,4421.538353,4218.974256,4235.384512,4199.999897,4216.410153,4219.487076
43,0,4204.102461,4227.692204,4186.153744,4223.07682,4224.102461,4217.435794,4219.999897,4191.794769,4421.538353,4221.025538,4242.563999,4193.846051,4213.33323,4224.102461
44,0,4204.102461,4221.538358,4175.897334,4216.922974,4219.999897,4216.410153,4216.410153,4193.846051,4422.563994,4218.461435,4236.410153,4184.615282,4211.794769,4231.794768
45,0,4224.102461,4224.615281,4182.564,4214.871692,4218.974256,4217.435794,4213.846051,4198.974256,4429.230661,4219.487076,4231.794768,4190.256308,4217.948615,4237.948614
46,0,4237.948614,4237.435794,4193.333231,4217.435794,4218.461435,4216.410153,4214.358871,4194.871692,4428.20502,4219.487076,4238.974255,4206.153743,4224.102461,4247.179383
47,0,4251.794768,4245.640922,4199.999897,4224.615281,4213.33323,4214.871692,4212.82041,4184.102462,4416.410148,4207.179384,4243.076819,4218.461435,4226.153743,4263.076819
48,0,4288.205023,4259.487075,4211.794769,4233.33323,4215.897333,4214.871692,4207.692205,4183.076821,4410.769123,4196.410154,4242.563999,4226.666563,4232.820409,4289.230664
49,0,4335.89733,4290.769126,4221.538358,4239.999896,4221.538358,4213.846051,4202.051179,4182.564,4409.230661,4201.538359,4243.076819,4237.435794,4241.538358,4320.512715
50,0,4379.999893,4325.64092,4228.717845,4246.666563,4220.512717,4215.384512,4201.538359,4175.897334,4406.666559,4208.205025,4249.230665,4244.615281,4247.179383,4343.589637
51,0,4416.410148,4342.563996,4240.512717,4254.871691,4217.435794,4216.410153,4206.153743,4176.410154,4407.6922,4201.538359,4253.84605,4243.58964,4255.384511,4364.102457
52,0,4447.179378,4348.205022,4249.743486,4263.076819,4223.07682,4216.410153,4204.615282,4178.974257,4402.051174,4203.07682,4255.384511,4250.256306,4266.666562,4390.256303
53,0,4469.23066,4359.999893,4249.743486,4267.692203,4228.205025,4218.461435,4203.07682,4176.922975,4393.846046,4211.794769,4255.384511,4266.153742,4273.846049,4409.743482
